## Header ##
[General info]
User	Spachis_Leandros
Device	Dev3c4-PVSK-1.4M-29-02-2024
Cell area (cm2)	1
Test	Transistor Sweep
Date	2024-07-29
Time	12:19:29
Temperature	25.00
Note	

[Gate Settings]
Start (V)	0.000
End (V)	0.000
Step (V)	0.000

[Channel Settings]
Start (V)	-1.000
End (V)	1.000
Step (V)	0.025

[Scan Settings]
Delay Time (s)	5.000
Scan Rate (mV/s)	100.000
Include reverse	Yes
Revert	No

## Data ##
Vds	Ids (A)@Vg=0V
-1.00000E+0	-5.55205E-9
-9.75002E-1	-5.32633E-9
-9.50002E-1	-5.11506E-9
-9.25002E-1	-4.91462E-9
-9.00002E-1	-4.68710E-9
-8.75002E-1	-4.53000E-9
-8.50002E-1	-4.34762E-9
-8.25002E-1	-4.17788E-9
-8.00003E-1	-3.99730E-9
-7.75002E-1	-3.85646E-9
-7.50002E-1	-3.69755E-9
-7.25002E-1	-3.57657E-9
-7.00002E-1	-3.42850E-9
-6.75002E-1	-3.27320E-9
-6.50002E-1	-3.13236E-9
-6.25002E-1	-3.01498E-9
-6.00002E-1	-2.84885E-9
-5.75002E-1	-2.67912E-9
-5.50002E-1	-2.55091E-9
-5.25002E-1	-2.43173E-9
-5.00002E-1	-2.33422E-9
-4.75002E-1	-2.22407E-9
-4.50002E-1	-2.10489E-9
-4.25002E-1	-1.99113E-9
-4.00002E-1	-1.88278E-9
-3.75002E-1	-1.77986E-9
-3.50003E-1	-1.67693E-9
-3.25002E-1	-1.59567E-9
-3.00002E-1	-1.47830E-9
-2.75002E-1	-1.37357E-9
-2.50002E-1	-1.26703E-9
-2.25002E-1	-1.17855E-9
-2.00002E-1	-1.09729E-9
-1.75002E-1	-1.00519E-9
-1.50002E-1	-9.20325E-10
-1.25002E-1	-8.40873E-10
-1.00002E-1	-7.75866E-10
-7.50023E-2	-6.89190E-10
-5.00023E-2	-5.98904E-10
-2.50024E-2	-5.41120E-10
-2.24498E-6	-4.59862E-10
2.49977E-2	-3.85826E-10
4.99976E-2	-3.22625E-10
7.49978E-2	-2.50396E-10
9.99978E-2	-1.65526E-10
1.24997E-1	-9.87137E-11
1.49998E-1	-3.91243E-11
1.74998E-1	3.85225E-11
1.99998E-1	1.01723E-10
2.24998E-1	1.72147E-10
2.49998E-1	2.44377E-10
2.74998E-1	3.07578E-10
2.99998E-1	3.90642E-10
3.24998E-1	4.48425E-10
3.49997E-1	5.13432E-10
3.74998E-1	5.83856E-10
3.99998E-1	6.47057E-10
4.24998E-1	7.19286E-10
4.49998E-1	7.75264E-10
4.74998E-1	8.42076E-10
4.99997E-1	9.05277E-10
5.24998E-1	9.57644E-10
5.49998E-1	1.02084E-9
5.74997E-1	1.09849E-9
5.99998E-1	1.14725E-9
6.24998E-1	1.22309E-9
6.49998E-1	1.28990E-9
6.74998E-1	1.35491E-9
6.99998E-1	1.41450E-9
7.24997E-1	1.48673E-9
7.49998E-1	1.54451E-9
7.74998E-1	1.60229E-9
7.99998E-1	1.67452E-9
8.24998E-1	1.73953E-9
8.49998E-1	1.80273E-9
8.74997E-1	1.87315E-9
8.99998E-1	1.93455E-9
9.24998E-1	2.01039E-9
9.49997E-1	2.09345E-9
9.74998E-1	2.18194E-9
9.99998E-1	2.24333E-9
9.75002E-1	1.86954E-9
9.50002E-1	1.61674E-9
9.25002E-1	1.39102E-9
9.00002E-1	1.18878E-9
8.75002E-1	9.93759E-10
8.50002E-1	8.18602E-10
8.25002E-1	6.43445E-10
8.00002E-1	4.84540E-10
7.75002E-1	3.20218E-10
7.50002E-1	1.70341E-10
7.25002E-1	2.94938E-11
7.00002E-1	-1.14965E-10
6.75002E-1	-2.52202E-10
6.50002E-1	-3.78603E-10
6.25003E-1	-5.06811E-10
6.00002E-1	-6.20572E-10
5.75002E-1	-7.41557E-10
5.50002E-1	-8.60736E-10
5.25002E-1	-9.56440E-10
5.00002E-1	-1.06659E-9
4.75002E-1	-1.16771E-9
4.50002E-1	-1.27064E-9
4.25002E-1	-1.36634E-9
4.00002E-1	-1.46746E-9
3.75002E-1	-1.56678E-9
3.50002E-1	-1.66610E-9
3.25002E-1	-1.74194E-9
3.00002E-1	-1.83764E-9
2.75002E-1	-1.94237E-9
2.50002E-1	-2.02905E-9
2.25002E-1	-2.10489E-9
2.00002E-1	-2.19337E-9
1.75002E-1	-2.25657E-9
1.50002E-1	-2.33602E-9
1.25002E-1	-2.41548E-9
1.00002E-1	-2.48590E-9
7.50022E-2	-2.56716E-9
5.00031E-2	-2.63036E-9
2.50023E-2	-2.71884E-9
2.33510E-6	-2.78746E-9
-2.49977E-2	-2.85788E-9
-4.99974E-2	-2.93192E-9
-7.49977E-2	-3.00234E-9
-9.99978E-2	-3.05651E-9
-1.24998E-1	-3.13777E-9
-1.49998E-1	-3.21000E-9
-1.74997E-1	-3.28043E-9
-1.99998E-1	-3.34543E-9
-2.24998E-1	-3.41225E-9
-2.49998E-1	-3.47545E-9
-2.74998E-1	-3.54226E-9
-2.99998E-1	-3.60907E-9
-3.24998E-1	-3.69394E-9
-3.49998E-1	-3.76978E-9
-3.74998E-1	-3.83479E-9
-3.99998E-1	-3.89438E-9
-4.24998E-1	-3.96480E-9
-4.49998E-1	-4.01717E-9
-4.74998E-1	-4.07315E-9
-4.99998E-1	-4.13996E-9
-5.24998E-1	-4.21219E-9
-5.49998E-1	-4.27900E-9
-5.74998E-1	-4.34220E-9
-5.99998E-1	-4.41263E-9
-6.24998E-1	-4.48305E-9
-6.49998E-1	-4.55347E-9
-6.74998E-1	-4.64195E-9
-6.99998E-1	-4.95615E-9
-7.24998E-1	-5.19451E-9
-7.49998E-1	-5.21076E-9
-7.74998E-1	-5.31188E-9
-7.99998E-1	-5.40398E-9
-8.24998E-1	-5.47621E-9
-8.49998E-1	-5.55927E-9
-8.74997E-1	-5.60622E-9
-8.99998E-1	-5.71998E-9
-9.24998E-1	-5.77596E-9
-9.49998E-1	-5.86625E-9
-9.74998E-1	-5.93847E-9
-9.99998E-1	-6.07932E-9
