## Header ##
[General info]
User	Giorgos_Psaltakis
Device	dev1cell3pmmaeaold
Cell area (cm2)	1
Test	Memristor
Date	2024-02-28
Time	14:15:53
Note	

[Acquisition Settings]
Sampling time (s)	1.000E+1
Voltage Range (V)	6.000E+0
Current Range (A)	1.000E-6
Current Limit (A)	1.000E-6

[Waveform Settings]
V_HRS (V)	1.5000
V_LRS (V)	1.5000
V_READ (V)	0.0000
t_HRS (s)	3.0000
t_LRS (s)	3.0000
t_READ (s)	0.1000
d_HRS (s)	1.0000
d_LRS (s)	1.0000
d_READ (s)	0.2000
Cycles	1

## Data ##
Time (s)	Voltage (V)	Current (A)
0.00000E+0	9.68709E-6	1.90908E-9
1.00000E-2	-9.41563E-6	-8.48914E-11
2.00000E-2	3.31952E-6	-7.72245E-11
3.00000E-2	-1.66380E-6	-1.06490E-10
4.00000E-2	-4.43231E-6	-1.10666E-10
5.00000E-2	3.73479E-6	-9.26831E-11
6.00000E-2	2.62739E-6	-1.05150E-10
7.00000E-2	-1.38695E-6	-8.33955E-11
8.00000E-2	-1.41121E-7	-4.22868E-11
9.00000E-2	-1.38695E-6	-1.36067E-10
1.00000E-1	2.90424E-6	-1.02812E-10
1.10000E-1	-3.60176E-6	-4.19439E-11
1.20000E-1	3.18109E-6	-1.35818E-10
1.30000E-1	3.18109E-6	-4.74916E-11
1.40000E-1	-4.98601E-6	-9.35246E-11
1.50000E-1	-3.60176E-6	-4.52476E-11
1.60000E-1	5.25747E-6	-1.67140E-10
1.70000E-1	-2.90963E-6	-3.81416E-11
1.80000E-1	-5.56397E-7	-1.21699E-10
1.90000E-1	2.21211E-6	-4.16946E-11
2.00000E-1	4.12581E-7	-1.04713E-10
2.10000E-1	-1.80223E-6	-1.55172E-10
2.20000E-1	1.65841E-6	-5.80259E-11
2.30000E-1	3.45794E-6	-9.56751E-11
2.40000E-1	-3.18648E-6	-4.98602E-11
2.50000E-1	-2.63278E-6	-1.00381E-10
2.60000E-1	1.65841E-6	-7.77231E-11
2.70000E-1	-3.87861E-6	-8.65121E-11
2.80000E-1	-2.79546E-7	-1.29678E-10
2.90000E-1	4.98062E-6	-1.02345E-10
3.00000E-1	1.93526E-6	-6.09244E-11
3.10000E-1	-2.21750E-6	-1.30426E-10
3.20000E-1	3.87322E-6	-6.87783E-11
3.30000E-1	-1.10767E-5	-7.43572E-11
3.40000E-1	6.78015E-6	-7.49805E-11
3.50000E-1	3.31952E-6	-1.22603E-10
3.60000E-1	9.66283E-7	-5.34132E-11
3.70000E-1	-1.24852E-6	-1.00194E-10
3.80000E-1	-5.53971E-6	-6.95263E-11
3.90000E-1	4.01164E-6	-7.59466E-11
4.00000E-1	-3.46333E-6	-1.00942E-10
4.10000E-1	2.48896E-6	-8.11515E-11
4.20000E-1	-5.67814E-6	-9.44284E-11
4.30000E-1	-6.94823E-7	-1.08391E-10
4.40000E-1	2.90424E-6	-6.79992E-11
4.50000E-1	9.66283E-7	-1.15279E-10
4.60000E-1	-4.29388E-6	-1.04215E-10
4.70000E-1	-2.07908E-6	-4.64008E-11
4.80000E-1	-6.94823E-7	-8.34890E-11
4.90000E-1	2.35054E-6	-1.05742E-10
5.00000E-1	6.89432E-7	-1.19019E-10
5.10000E-1	-5.26286E-6	-6.98692E-11
5.20000E-1	3.45794E-6	-4.47178E-11
5.30000E-1	-3.46333E-6	-1.78422E-10
5.40000E-1	7.19543E-6	-6.22957E-11
5.50000E-1	-3.04806E-6	-9.84177E-11
5.60000E-1	-5.56397E-7	-2.41167E-11
5.70000E-1	-8.33248E-7	-1.52616E-10
5.80000E-1	3.87322E-6	-3.65210E-11
5.90000E-1	-6.09342E-6	-9.94774E-11
6.00000E-1	4.28849E-6	-9.24026E-11
6.10000E-1	-5.53971E-6	-4.61203E-11
6.20000E-1	2.07369E-6	-7.11470E-11
6.30000E-1	-1.41121E-7	-1.54767E-10
6.40000E-1	3.31952E-6	-1.15092E-10
6.50000E-1	-3.32491E-6	-6.06127E-11
6.60000E-1	5.81117E-6	-1.02843E-10
6.70000E-1	-1.66380E-6	-1.22603E-10
6.80000E-1	5.51007E-7	6.89404E-12
6.90000E-1	-4.43231E-6	-1.48347E-10
7.00000E-1	9.66283E-7	-7.74115E-11
7.10000E-1	5.53432E-6	-6.79368E-11
7.20000E-1	-2.49435E-6	-1.27029E-10
7.30000E-1	1.93526E-6	-6.40722E-11
7.40000E-1	-6.50869E-6	-7.75050E-11
7.50000E-1	3.45794E-6	-8.81328E-11
7.60000E-1	1.51999E-6	-6.20775E-11
7.70000E-1	5.51007E-7	-1.63462E-10
7.80000E-1	6.89432E-7	-9.22468E-11
7.90000E-1	3.45794E-6	-1.10448E-10
8.00000E-1	4.12581E-7	-1.87560E-11
8.10000E-1	1.10471E-6	-1.17118E-10
8.20000E-1	-5.67814E-6	-4.44061E-11
8.30000E-1	5.11905E-6	-1.35475E-10
8.40000E-1	-4.17972E-7	-5.96154E-11
8.50000E-1	8.27858E-7	-8.02165E-11
8.60000E-1	-4.15546E-6	-1.07300E-10
8.70000E-1	6.78015E-6	-7.92815E-11
8.80000E-1	-8.30822E-6	-8.81016E-11
8.90000E-1	2.35054E-6	-1.08111E-10
9.00000E-1	4.01164E-6	-2.24025E-11
9.10000E-1	-3.60176E-6	-1.21793E-10
9.20000E-1	1.10471E-6	-8.63874E-11
9.30000E-1	-1.80223E-6	-4.51541E-11
9.40000E-1	-1.80223E-6	-1.35350E-10
9.50000E-1	2.21211E-6	-7.70686E-11
9.60000E-1	-4.29388E-6	-1.19268E-10
9.70000E-1	3.59637E-6	-1.22229E-10
9.80000E-1	-1.38695E-6	-6.87472E-11
9.90000E-1	7.33385E-6	-7.42013E-11
1.00000E+0	1.47155E+0	5.81280E-8
1.01000E+0	1.50001E+0	8.26868E-9
1.02000E+0	1.50000E+0	7.28039E-9
1.03000E+0	1.50000E+0	6.94111E-9
1.04000E+0	1.50000E+0	6.64054E-9
1.05000E+0	1.50000E+0	6.62299E-9
1.06000E+0	1.50000E+0	6.37176E-9
1.07000E+0	1.50000E+0	6.36487E-9
1.08000E+0	1.50000E+0	6.27754E-9
1.09000E+0	1.50000E+0	6.34891E-9
1.10000E+0	1.50000E+0	6.16441E-9
1.11000E+0	1.50000E+0	6.17915E-9
1.12000E+0	1.50000E+0	6.24376E-9
1.13000E+0	1.49999E+0	6.17756E-9
1.14000E+0	1.50000E+0	6.19507E-9
1.15000E+0	1.50000E+0	6.16247E-9
1.16000E+0	1.50000E+0	6.17182E-9
1.17000E+0	1.50000E+0	6.12772E-9
1.18000E+0	1.50000E+0	6.24055E-9
1.19000E+0	1.50000E+0	6.21194E-9
1.20000E+0	1.50000E+0	6.17703E-9
1.21000E+0	1.50000E+0	6.26028E-9
1.22000E+0	1.50000E+0	6.18030E-9
1.23000E+0	1.50000E+0	6.23522E-9
1.24000E+0	1.50001E+0	6.29169E-9
1.25000E+0	1.50000E+0	6.21131E-9
1.26000E+0	1.50000E+0	6.39008E-9
1.27000E+0	1.50000E+0	6.31313E-9
1.28000E+0	1.50000E+0	6.39716E-9
1.29000E+0	1.50000E+0	6.35864E-9
1.30000E+0	1.50000E+0	6.38176E-9
1.31000E+0	1.50000E+0	6.45410E-9
1.32000E+0	1.50000E+0	6.41436E-9
1.33000E+0	1.50000E+0	6.56427E-9
1.34000E+0	1.50000E+0	7.11327E-9
1.35000E+0	1.50000E+0	8.80995E-9
1.36000E+0	1.50000E+0	1.14829E-8
1.37000E+0	1.49999E+0	1.44439E-8
1.38000E+0	1.50000E+0	1.71934E-8
1.39000E+0	1.50000E+0	1.87855E-8
1.40000E+0	1.50001E+0	1.92517E-8
1.41000E+0	1.50000E+0	2.07690E-8
1.42000E+0	1.50000E+0	2.13277E-8
1.43000E+0	1.50000E+0	2.55569E-8
1.44000E+0	1.50000E+0	2.71062E-8
1.45000E+0	1.49999E+0	2.15978E-8
1.46000E+0	1.50000E+0	2.32526E-8
1.47000E+0	1.50000E+0	2.31356E-8
1.48000E+0	1.50000E+0	2.33783E-8
1.49000E+0	1.50000E+0	2.31651E-8
1.50000E+0	1.50000E+0	2.11895E-8
1.51000E+0	1.50000E+0	2.12159E-8
1.52000E+0	1.50000E+0	2.13035E-8
1.53000E+0	1.50000E+0	2.08772E-8
1.54000E+0	1.50000E+0	2.19685E-8
1.55000E+0	1.50000E+0	2.18122E-8
1.56000E+0	1.50000E+0	2.03599E-8
1.57000E+0	1.50000E+0	2.21077E-8
1.58000E+0	1.50000E+0	2.03309E-8
1.59000E+0	1.50000E+0	1.79269E-8
1.60000E+0	1.50000E+0	1.67758E-8
1.61000E+0	1.50000E+0	1.57710E-8
1.62000E+0	1.50000E+0	1.52913E-8
1.63000E+0	1.50000E+0	1.44592E-8
1.64000E+0	1.50000E+0	1.38816E-8
1.65000E+0	1.50000E+0	1.30987E-8
1.66000E+0	1.50000E+0	1.33141E-8
1.67000E+0	1.50000E+0	1.42019E-8
1.68000E+0	1.49999E+0	1.90065E-8
1.69000E+0	1.50000E+0	1.94261E-8
1.70000E+0	1.50000E+0	1.99922E-8
1.71000E+0	1.50000E+0	2.03236E-8
1.72000E+0	1.50000E+0	2.05669E-8
1.73000E+0	1.50000E+0	2.13688E-8
1.74000E+0	1.50001E+0	2.21873E-8
1.75000E+0	1.49999E+0	2.32060E-8
1.76000E+0	1.50000E+0	2.25675E-8
1.77000E+0	1.50001E+0	2.35933E-8
1.78000E+0	1.50000E+0	2.44664E-8
1.79000E+0	1.50000E+0	2.39780E-8
1.80000E+0	1.50000E+0	2.36978E-8
1.81000E+0	1.50000E+0	2.32252E-8
1.82000E+0	1.49999E+0	2.39510E-8
1.83000E+0	1.50000E+0	2.56168E-8
1.84000E+0	1.50000E+0	2.49869E-8
1.85000E+0	1.50001E+0	2.44686E-8
1.86000E+0	1.49999E+0	2.48842E-8
1.87000E+0	1.50000E+0	2.41617E-8
1.88000E+0	1.50000E+0	2.40329E-8
1.89000E+0	1.50001E+0	2.45073E-8
1.90000E+0	1.50000E+0	2.46246E-8
1.91000E+0	1.50000E+0	2.56691E-8
1.92000E+0	1.50000E+0	2.50001E-8
1.93000E+0	1.50000E+0	2.58457E-8
1.94000E+0	1.50000E+0	2.49234E-8
1.95000E+0	1.50000E+0	2.53748E-8
1.96000E+0	1.49999E+0	2.57621E-8
1.97000E+0	1.50001E+0	2.65326E-8
1.98000E+0	1.50000E+0	2.57613E-8
1.99000E+0	1.50000E+0	2.54582E-8
2.00000E+0	1.50000E+0	2.54333E-8
2.01000E+0	1.50000E+0	2.53719E-8
2.02000E+0	1.50000E+0	2.52428E-8
2.03000E+0	1.50001E+0	2.60390E-8
2.04000E+0	1.50000E+0	2.56684E-8
2.05000E+0	1.50000E+0	2.39100E-8
2.06000E+0	1.49999E+0	2.44271E-8
2.07000E+0	1.50000E+0	2.39006E-8
2.08000E+0	1.50000E+0	2.47216E-8
2.09000E+0	1.50000E+0	2.45358E-8
2.10000E+0	1.50000E+0	2.47279E-8
2.11000E+0	1.49999E+0	2.50081E-8
2.12000E+0	1.50000E+0	2.39154E-8
2.13000E+0	1.50000E+0	2.52713E-8
2.14000E+0	1.50000E+0	2.48305E-8
2.15000E+0	1.50000E+0	2.42955E-8
2.16000E+0	1.50000E+0	2.50041E-8
2.17000E+0	1.50000E+0	2.53494E-8
2.18000E+0	1.50000E+0	2.50580E-8
2.19000E+0	1.50001E+0	2.52973E-8
2.20000E+0	1.50000E+0	2.51951E-8
2.21000E+0	1.50000E+0	2.51340E-8
2.22000E+0	1.50000E+0	2.63991E-8
2.23000E+0	1.50000E+0	2.55590E-8
2.24000E+0	1.50000E+0	2.50029E-8
2.25000E+0	1.50000E+0	2.60297E-8
2.26000E+0	1.50000E+0	2.56262E-8
2.27000E+0	1.50000E+0	2.60443E-8
2.28000E+0	1.50000E+0	2.62858E-8
2.29000E+0	1.50000E+0	2.68449E-8
2.30000E+0	1.50001E+0	2.55676E-8
2.31000E+0	1.50000E+0	2.44443E-8
2.32000E+0	1.50000E+0	2.50806E-8
2.33000E+0	1.50000E+0	2.50581E-8
2.34000E+0	1.50000E+0	2.49399E-8
2.35000E+0	1.50000E+0	2.48655E-8
2.36000E+0	1.50000E+0	2.54822E-8
2.37000E+0	1.50000E+0	2.74917E-8
2.38000E+0	1.50000E+0	2.77340E-8
2.39000E+0	1.50000E+0	2.62329E-8
2.40000E+0	1.50000E+0	2.61495E-8
2.41000E+0	1.50000E+0	2.45185E-8
2.42000E+0	1.50000E+0	2.46319E-8
2.43000E+0	1.50000E+0	2.54398E-8
2.44000E+0	1.50000E+0	2.63727E-8
2.45000E+0	1.50000E+0	2.55608E-8
2.46000E+0	1.50000E+0	2.42870E-8
2.47000E+0	1.50000E+0	2.48130E-8
2.48000E+0	1.50000E+0	2.49970E-8
2.49000E+0	1.50000E+0	2.54570E-8
2.50000E+0	1.50000E+0	2.54468E-8
2.51000E+0	1.49999E+0	2.50346E-8
2.52000E+0	1.50000E+0	2.53471E-8
2.53000E+0	1.49999E+0	2.52678E-8
2.54000E+0	1.50000E+0	2.62314E-8
2.55000E+0	1.50000E+0	2.59932E-8
2.56000E+0	1.50000E+0	2.61609E-8
2.57000E+0	1.50001E+0	2.61003E-8
2.58000E+0	1.50000E+0	2.59021E-8
2.59000E+0	1.50000E+0	2.59343E-8
2.60000E+0	1.50000E+0	2.56296E-8
2.61000E+0	1.50000E+0	2.75848E-8
2.62000E+0	1.50000E+0	2.78155E-8
2.63000E+0	1.50000E+0	2.79090E-8
2.64000E+0	1.50000E+0	2.78937E-8
2.65000E+0	1.50000E+0	2.60560E-8
2.66000E+0	1.50001E+0	2.51566E-8
2.67000E+0	1.50000E+0	2.66193E-8
2.68000E+0	1.50000E+0	2.73895E-8
2.69000E+0	1.50000E+0	2.75943E-8
2.70000E+0	1.50000E+0	2.67157E-8
2.71000E+0	1.50000E+0	2.68828E-8
2.72000E+0	1.50000E+0	2.81094E-8
2.73000E+0	1.50000E+0	2.67115E-8
2.74000E+0	1.50001E+0	2.62519E-8
2.75000E+0	1.50000E+0	2.71011E-8
2.76000E+0	1.50000E+0	2.66524E-8
2.77000E+0	1.50000E+0	2.72534E-8
2.78000E+0	1.50000E+0	2.68710E-8
2.79000E+0	1.50000E+0	2.64419E-8
2.80000E+0	1.50001E+0	2.51811E-8
2.81000E+0	1.50000E+0	2.57371E-8
2.82000E+0	1.50000E+0	2.68202E-8
2.83000E+0	1.50000E+0	2.77592E-8
2.84000E+0	1.50000E+0	2.90743E-8
2.85000E+0	1.50000E+0	2.78815E-8
2.86000E+0	1.50000E+0	2.84627E-8
2.87000E+0	1.50000E+0	2.80231E-8
2.88000E+0	1.50000E+0	2.68542E-8
2.89000E+0	1.50000E+0	2.68086E-8
2.90000E+0	1.50001E+0	2.68646E-8
2.91000E+0	1.49999E+0	2.67447E-8
2.92000E+0	1.50000E+0	2.59246E-8
2.93000E+0	1.50000E+0	2.55005E-8
2.94000E+0	1.49999E+0	2.58086E-8
2.95000E+0	1.50000E+0	2.65515E-8
2.96000E+0	1.50001E+0	2.67720E-8
2.97000E+0	1.49999E+0	2.63427E-8
2.98000E+0	1.50000E+0	2.68587E-8
2.99000E+0	1.50000E+0	2.67410E-8
3.00000E+0	1.50000E+0	2.70098E-8
3.01000E+0	1.50000E+0	2.66895E-8
3.02000E+0	1.50000E+0	2.52060E-8
3.03000E+0	1.49999E+0	2.58876E-8
3.04000E+0	1.50000E+0	2.59282E-8
3.05000E+0	1.50000E+0	2.60268E-8
3.06000E+0	1.50000E+0	2.73729E-8
3.07000E+0	1.50000E+0	2.79127E-8
3.08000E+0	1.50000E+0	2.85378E-8
3.09000E+0	1.50000E+0	2.81690E-8
3.10000E+0	1.50000E+0	2.98665E-8
3.11000E+0	1.50000E+0	3.07882E-8
3.12000E+0	1.50000E+0	3.09379E-8
3.13000E+0	1.50000E+0	3.11444E-8
3.14000E+0	1.50000E+0	3.12172E-8
3.15000E+0	1.50000E+0	3.17549E-8
3.16000E+0	1.50001E+0	3.16520E-8
3.17000E+0	1.50000E+0	3.06150E-8
3.18000E+0	1.50000E+0	3.21141E-8
3.19000E+0	1.50000E+0	3.18818E-8
3.20000E+0	1.50000E+0	2.95874E-8
3.21000E+0	1.50000E+0	2.94924E-8
3.22000E+0	1.50001E+0	2.97132E-8
3.23000E+0	1.50000E+0	3.20393E-8
3.24000E+0	1.50000E+0	3.15244E-8
3.25000E+0	1.50001E+0	3.10245E-8
3.26000E+0	1.50000E+0	3.14166E-8
3.27000E+0	1.50000E+0	3.15281E-8
3.28000E+0	1.50000E+0	3.20782E-8
3.29000E+0	1.49999E+0	3.17570E-8
3.30000E+0	1.50000E+0	2.93323E-8
3.31000E+0	1.50000E+0	2.76608E-8
3.32000E+0	1.50000E+0	2.78862E-8
3.33000E+0	1.50000E+0	2.96324E-8
3.34000E+0	1.50000E+0	2.80908E-8
3.35000E+0	1.50000E+0	2.80659E-8
3.36000E+0	1.50000E+0	2.86536E-8
3.37000E+0	1.50000E+0	2.84342E-8
3.38000E+0	1.50000E+0	2.94827E-8
3.39000E+0	1.50000E+0	3.09935E-8
3.40000E+0	1.50000E+0	3.09428E-8
3.41000E+0	1.50001E+0	3.03840E-8
3.42000E+0	1.49999E+0	2.94882E-8
3.43000E+0	1.50001E+0	3.00835E-8
3.44000E+0	1.50000E+0	2.91912E-8
3.45000E+0	1.50000E+0	2.84558E-8
3.46000E+0	1.50000E+0	2.92056E-8
3.47000E+0	1.50000E+0	2.94816E-8
3.48000E+0	1.50000E+0	2.91148E-8
3.49000E+0	1.49999E+0	2.94893E-8
3.50000E+0	1.50000E+0	3.00459E-8
3.51000E+0	1.49999E+0	3.08927E-8
3.52000E+0	1.50001E+0	3.29640E-8
3.53000E+0	1.50000E+0	3.27985E-8
3.54000E+0	1.50000E+0	3.28683E-8
3.55000E+0	1.50000E+0	3.41152E-8
3.56000E+0	1.50000E+0	3.57102E-8
3.57000E+0	1.50000E+0	3.57230E-8
3.58000E+0	1.49999E+0	3.57134E-8
3.59000E+0	1.50000E+0	3.67019E-8
3.60000E+0	1.50000E+0	3.74929E-8
3.61000E+0	1.50000E+0	3.91018E-8
3.62000E+0	1.50000E+0	4.00659E-8
3.63000E+0	1.50000E+0	4.03307E-8
3.64000E+0	1.50000E+0	3.95979E-8
3.65000E+0	1.50000E+0	3.89211E-8
3.66000E+0	1.50000E+0	3.84124E-8
3.67000E+0	1.50000E+0	3.83755E-8
3.68000E+0	1.50000E+0	3.91565E-8
3.69000E+0	1.50000E+0	3.88322E-8
3.70000E+0	1.50000E+0	3.87210E-8
3.71000E+0	1.50000E+0	3.97694E-8
3.72000E+0	1.50000E+0	3.90687E-8
3.73000E+0	1.50000E+0	3.90583E-8
3.74000E+0	1.50000E+0	3.97495E-8
3.75000E+0	1.50000E+0	3.99080E-8
3.76000E+0	1.49999E+0	4.04228E-8
3.77000E+0	1.50000E+0	4.10927E-8
3.78000E+0	1.50000E+0	4.06078E-8
3.79000E+0	1.50000E+0	4.01399E-8
3.80000E+0	1.50000E+0	4.07872E-8
3.81000E+0	1.50000E+0	4.18379E-8
3.82000E+0	1.50001E+0	4.14467E-8
3.83000E+0	1.50000E+0	4.19995E-8
3.84000E+0	1.50000E+0	4.33379E-8
3.85000E+0	1.50000E+0	4.33699E-8
3.86000E+0	1.50000E+0	4.30546E-8
3.87000E+0	1.50000E+0	4.32282E-8
3.88000E+0	1.50001E+0	4.38831E-8
3.89000E+0	1.50000E+0	4.49417E-8
3.90000E+0	1.50000E+0	4.41350E-8
3.91000E+0	1.50000E+0	4.40955E-8
3.92000E+0	1.50000E+0	4.41865E-8
3.93000E+0	1.50000E+0	4.49444E-8
3.94000E+0	1.50000E+0	4.46362E-8
3.95000E+0	1.50000E+0	4.48725E-8
3.96000E+0	1.50000E+0	4.30587E-8
3.97000E+0	1.50000E+0	4.30879E-8
3.98000E+0	1.50000E+0	4.36597E-8
3.99000E+0	1.50000E+0	4.39841E-8
4.00000E+0	2.90209E-2	-5.57631E-8
4.01000E+0	5.67275E-6	-5.10984E-9
4.02000E+0	-4.15546E-6	-3.98638E-9
4.03000E+0	1.24313E-6	-3.51729E-9
4.04000E+0	-6.37027E-6	-3.11070E-9
4.05000E+0	9.66283E-7	-2.96393E-9
4.06000E+0	4.15007E-6	-2.84207E-9
4.07000E+0	-2.49435E-6	-2.74733E-9
4.08000E+0	4.12581E-7	-2.62010E-9
4.09000E+0	-5.56397E-7	-2.55649E-9
4.10000E+0	-2.07908E-6	-2.42700E-9
4.11000E+0	2.90424E-6	-2.49054E-9
4.12000E+0	5.94960E-6	-2.34546E-9
4.13000E+0	-4.29388E-6	-2.31003E-9
4.14000E+0	1.24313E-6	-2.36366E-9
4.15000E+0	1.24313E-6	-2.18502E-9
4.16000E+0	-5.56397E-7	-2.20521E-9
4.17000E+0	-5.53971E-6	-2.20004E-9
4.18000E+0	4.12581E-7	-2.13889E-9
4.19000E+0	-8.33248E-7	-2.18009E-9
4.20000E+0	4.98062E-6	-2.12415E-9
4.21000E+0	-6.50869E-6	-2.03579E-9
4.22000E+0	6.91858E-6	-2.03118E-9
4.23000E+0	-3.46333E-6	-2.06914E-9
4.24000E+0	1.10471E-6	-1.98533E-9
4.25000E+0	5.51007E-7	-1.98156E-9
4.26000E+0	-3.32491E-6	-1.89539E-9
4.27000E+0	3.73479E-6	-1.96732E-9
4.28000E+0	-7.33925E-6	-1.86734E-9
4.29000E+0	2.90424E-6	-1.89935E-9
4.30000E+0	5.51007E-7	-1.87058E-9
4.31000E+0	1.24313E-6	-1.81520E-9
4.32000E+0	-2.35593E-6	-1.84091E-9
4.33000E+0	5.25747E-6	-1.81333E-9
4.34000E+0	-3.87861E-6	-1.83785E-9
4.35000E+0	-2.77120E-6	-1.77440E-9
4.36000E+0	1.65841E-6	-1.78381E-9
4.37000E+0	2.62739E-6	-1.70820E-9
4.38000E+0	-6.94823E-7	-1.67245E-9
4.39000E+0	1.93526E-6	-1.77172E-9
4.40000E+0	-1.38695E-6	-1.54922E-9
4.41000E+0	-4.01703E-6	-1.37696E-9
4.42000E+0	6.36488E-6	-1.22902E-9
4.43000E+0	3.87322E-6	-1.30425E-9
4.44000E+0	-8.44665E-6	-1.17516E-9
4.45000E+0	1.93526E-6	-1.18055E-9
4.46000E+0	2.07369E-6	-1.16064E-9
4.47000E+0	3.87322E-6	-1.02350E-9
4.48000E+0	-1.38695E-6	-8.11197E-10
4.49000E+0	-4.84759E-6	-8.99149E-10
4.50000E+0	2.62739E-6	-1.01219E-9
4.51000E+0	6.89432E-7	-1.19991E-9
4.52000E+0	9.66283E-7	-1.09911E-9
4.53000E+0	-6.37027E-6	-1.07792E-9
4.54000E+0	4.42692E-6	-9.16633E-10
4.55000E+0	-2.49435E-6	-1.01225E-9
4.56000E+0	-2.77120E-6	-1.07150E-9
4.57000E+0	3.73479E-6	-1.12716E-9
4.58000E+0	2.74156E-7	-1.20851E-9
4.59000E+0	-3.46333E-6	-1.12324E-9
4.60000E+0	2.74156E-7	-1.20140E-9
4.61000E+0	-2.35593E-6	-1.20548E-9
4.62000E+0	2.62739E-6	-1.07842E-9
4.63000E+0	6.89432E-7	-1.07487E-9
4.64000E+0	-4.70916E-6	-1.23765E-9
4.65000E+0	5.39590E-6	-1.45049E-9
4.66000E+0	-5.67814E-6	-1.30469E-9
4.67000E+0	1.93526E-6	-9.98851E-10
4.68000E+0	2.07369E-6	-8.84282E-10
4.69000E+0	-8.33248E-7	-9.33588E-10
4.70000E+0	-1.11010E-6	-9.32372E-10
4.71000E+0	6.89432E-7	-1.16266E-9
4.72000E+0	1.38156E-6	-1.10123E-9
4.73000E+0	4.12581E-7	-1.03142E-9
4.74000E+0	-3.46333E-6	-1.25791E-9
4.75000E+0	1.51999E-6	-9.86820E-10
4.76000E+0	-8.33248E-7	-8.34634E-10
4.77000E+0	-2.63278E-6	-8.84345E-10
4.78000E+0	4.84220E-6	-7.66192E-10
4.79000E+0	4.42692E-6	-8.10418E-10
4.80000E+0	-3.18648E-6	-1.40744E-9
4.81000E+0	2.74156E-7	-1.26947E-9
4.82000E+0	-4.17972E-7	-1.34951E-9
4.83000E+0	2.90424E-6	-1.34969E-9
4.84000E+0	-6.23184E-6	-1.29182E-9
4.85000E+0	2.76581E-6	-1.33698E-9
4.86000E+0	-6.94823E-7	-1.23553E-9
4.87000E+0	-6.94823E-7	-8.17555E-10
4.88000E+0	2.76581E-6	-9.45119E-10
4.89000E+0	6.89432E-7	-1.05760E-9
4.90000E+0	1.38156E-6	-1.08696E-9
4.91000E+0	-1.66380E-6	-1.18812E-9
4.92000E+0	2.62739E-6	-1.18760E-9
4.93000E+0	5.11905E-6	-1.15381E-9
4.94000E+0	-3.04806E-6	-1.10853E-9
4.95000E+0	-3.04806E-6	-1.21007E-9
4.96000E+0	-1.38695E-6	-1.24691E-9
4.97000E+0	3.87322E-6	-1.29331E-9
4.98000E+0	-4.29388E-6	-1.13692E-9
4.99000E+0	-1.11010E-6	-1.25336E-9
5.00000E+0	-1.80223E-6	-1.20969E-9
5.01000E+0	5.81117E-6	-1.17828E-9
5.02000E+0	-5.95499E-6	-1.25130E-9
5.03000E+0	-1.11010E-6	-1.21016E-9
5.04000E+0	2.21211E-6	-1.16628E-9
5.05000E+0	1.35730E-7	-1.17491E-9
5.06000E+0	-4.17972E-7	-1.11576E-9
5.07000E+0	-2.90963E-6	-1.17061E-9
5.08000E+0	2.62739E-6	-1.19514E-9
5.09000E+0	3.73479E-6	-1.16537E-9
5.10000E+0	-3.04806E-6	-1.16727E-9
5.11000E+0	-2.69517E-9	-1.13019E-9
5.12000E+0	5.39590E-6	-1.12492E-9
5.13000E+0	-7.75452E-6	-1.17616E-9
5.14000E+0	2.07369E-6	-1.05931E-9
5.15000E+0	-2.21750E-6	-1.15169E-9
5.16000E+0	-8.33248E-7	-1.13346E-9
5.17000E+0	3.04267E-6	-1.09487E-9
5.18000E+0	2.07369E-6	-1.10522E-9
5.19000E+0	5.51007E-7	-1.15864E-9
5.20000E+0	-2.49435E-6	-1.03301E-9
5.21000E+0	-2.79546E-7	-1.14621E-9
5.22000E+0	5.81117E-6	-1.05906E-9
5.23000E+0	-7.75452E-6	-1.03207E-9
5.24000E+0	4.12581E-7	-1.15512E-9
5.25000E+0	6.78015E-6	-1.03937E-9
5.26000E+0	-1.80223E-6	-1.04199E-9
5.27000E+0	-1.11010E-6	-1.10313E-9
5.28000E+0	-2.07908E-6	-1.02129E-9
5.29000E+0	6.22645E-6	-1.07340E-9
5.30000E+0	1.47157E+0	5.72980E-8
5.31000E+0	1.50000E+0	7.32439E-9
5.32000E+0	1.49999E+0	6.28811E-9
5.33000E+0	1.50000E+0	5.90766E-9
5.34000E+0	1.50000E+0	5.76121E-9
5.35000E+0	1.50000E+0	5.74092E-9
5.36000E+0	1.50000E+0	5.62345E-9
5.37000E+0	1.50000E+0	5.56158E-9
5.38000E+0	1.50001E+0	5.55470E-9
5.39000E+0	1.50000E+0	5.59275E-9
5.40000E+0	1.50000E+0	5.54235E-9
5.41000E+0	1.50000E+0	5.65147E-9
5.42000E+0	1.50000E+0	5.67999E-9
5.43000E+0	1.50000E+0	5.63545E-9
5.44000E+0	1.50000E+0	5.78100E-9
5.45000E+0	1.50000E+0	5.76853E-9
5.46000E+0	1.50000E+0	5.91822E-9
5.47000E+0	1.50000E+0	5.86583E-9
5.48000E+0	1.50000E+0	5.90800E-9
5.49000E+0	1.50000E+0	6.03214E-9
5.50000E+0	1.50001E+0	6.11678E-9
5.51000E+0	1.50000E+0	6.11473E-9
5.52000E+0	1.50000E+0	6.16556E-9
5.53000E+0	1.50001E+0	6.34664E-9
5.54000E+0	1.50000E+0	6.36693E-9
5.55000E+0	1.50000E+0	6.34028E-9
5.56000E+0	1.50000E+0	6.53121E-9
5.57000E+0	1.50000E+0	6.57394E-9
5.58000E+0	1.50000E+0	6.51899E-9
5.59000E+0	1.50000E+0	6.70365E-9
5.60000E+0	1.50000E+0	6.78409E-9
5.61000E+0	1.50000E+0	6.75847E-9
5.62000E+0	1.50000E+0	6.81086E-9
5.63000E+0	1.50000E+0	6.97573E-9
5.64000E+0	1.50000E+0	6.99362E-9
5.65000E+0	1.49999E+0	7.08292E-9
5.66000E+0	1.50001E+0	7.18857E-9
5.67000E+0	1.50000E+0	7.52081E-9
5.68000E+0	1.49999E+0	7.79439E-9
5.69000E+0	1.50001E+0	7.92055E-9
5.70000E+0	1.49999E+0	8.21426E-9
5.71000E+0	1.50001E+0	8.46201E-9
5.72000E+0	1.50000E+0	8.53687E-9
5.73000E+0	1.50000E+0	8.88076E-9
5.74000E+0	1.50000E+0	8.98208E-9
5.75000E+0	1.50000E+0	9.41015E-9
5.76000E+0	1.50000E+0	9.87600E-9
5.77000E+0	1.50000E+0	1.14700E-8
5.78000E+0	1.50000E+0	1.12519E-8
5.79000E+0	1.50000E+0	1.16959E-8
5.80000E+0	1.50000E+0	1.23044E-8
5.81000E+0	1.50000E+0	1.14731E-8
5.82000E+0	1.50001E+0	1.16368E-8
5.83000E+0	1.50000E+0	1.18747E-8
5.84000E+0	1.50001E+0	1.20024E-8
5.85000E+0	1.50000E+0	1.24485E-8
5.86000E+0	1.50000E+0	1.35813E-8
5.87000E+0	1.50000E+0	1.43358E-8
5.88000E+0	1.50000E+0	1.45743E-8
5.89000E+0	1.50000E+0	1.47340E-8
5.90000E+0	1.50000E+0	1.55246E-8
5.91000E+0	1.50000E+0	1.55763E-8
5.92000E+0	1.50001E+0	1.49299E-8
5.93000E+0	1.49999E+0	1.54102E-8
5.94000E+0	1.50000E+0	1.52726E-8
5.95000E+0	1.50000E+0	1.51262E-8
5.96000E+0	1.50000E+0	1.42367E-8
5.97000E+0	1.50000E+0	1.41733E-8
5.98000E+0	1.50000E+0	1.43999E-8
5.99000E+0	1.50000E+0	1.40728E-8
6.00000E+0	1.50000E+0	1.37861E-8
6.01000E+0	1.50000E+0	1.34728E-8
6.02000E+0	1.50000E+0	1.36309E-8
6.03000E+0	1.50000E+0	1.31054E-8
6.04000E+0	1.50000E+0	1.26639E-8
6.05000E+0	1.50000E+0	1.28863E-8
6.06000E+0	1.50000E+0	1.36314E-8
6.07000E+0	1.50000E+0	1.35659E-8
6.08000E+0	1.49999E+0	1.33015E-8
6.09000E+0	1.50001E+0	1.33806E-8
6.10000E+0	1.50000E+0	1.40511E-8
6.11000E+0	1.49999E+0	1.42961E-8
6.12000E+0	1.50001E+0	1.41224E-8
6.13000E+0	1.50000E+0	1.42627E-8
6.14000E+0	1.50000E+0	1.45942E-8
6.15000E+0	1.50000E+0	1.43286E-8
6.16000E+0	1.50000E+0	1.43240E-8
6.17000E+0	1.50000E+0	1.47180E-8
6.18000E+0	1.50000E+0	1.44610E-8
6.19000E+0	1.50000E+0	1.37035E-8
6.20000E+0	1.50001E+0	1.40642E-8
6.21000E+0	1.50000E+0	1.37727E-8
6.22000E+0	1.50000E+0	1.51745E-8
6.23000E+0	1.50000E+0	1.81508E-8
6.24000E+0	1.49999E+0	2.07228E-8
6.25000E+0	1.50000E+0	2.01909E-8
6.26000E+0	1.50000E+0	2.03498E-8
6.27000E+0	1.50000E+0	2.01973E-8
6.28000E+0	1.50000E+0	1.99895E-8
6.29000E+0	1.50000E+0	1.98321E-8
6.30000E+0	1.50000E+0	2.12982E-8
6.31000E+0	1.50000E+0	2.11879E-8
6.32000E+0	1.50000E+0	2.11819E-8
6.33000E+0	1.50001E+0	2.15063E-8
6.34000E+0	1.49999E+0	2.09609E-8
6.35000E+0	1.50000E+0	2.15872E-8
6.36000E+0	1.50000E+0	2.12563E-8
6.37000E+0	1.50000E+0	2.14661E-8
6.38000E+0	1.50000E+0	2.19905E-8
6.39000E+0	1.50000E+0	2.26399E-8
6.40000E+0	1.50001E+0	2.20785E-8
6.41000E+0	1.50000E+0	2.19979E-8
6.42000E+0	1.50001E+0	2.16117E-8
6.43000E+0	1.50000E+0	2.19217E-8
6.44000E+0	1.50000E+0	2.18488E-8
6.45000E+0	1.50000E+0	2.20502E-8
6.46000E+0	1.50000E+0	2.27374E-8
6.47000E+0	1.50000E+0	2.36803E-8
6.48000E+0	1.50001E+0	2.24683E-8
6.49000E+0	1.49999E+0	2.13694E-8
6.50000E+0	1.50000E+0	2.14107E-8
6.51000E+0	1.50000E+0	2.44501E-8
6.52000E+0	1.50000E+0	2.50795E-8
6.53000E+0	1.50000E+0	2.49813E-8
6.54000E+0	1.50000E+0	2.41353E-8
6.55000E+0	1.50000E+0	2.36509E-8
6.56000E+0	1.50000E+0	2.39074E-8
6.57000E+0	1.50000E+0	2.41862E-8
6.58000E+0	1.50001E+0	2.45856E-8
6.59000E+0	1.49999E+0	2.39271E-8
6.60000E+0	1.50000E+0	2.44581E-8
6.61000E+0	1.50001E+0	2.43296E-8
6.62000E+0	1.49999E+0	2.41100E-8
6.63000E+0	1.50000E+0	2.54606E-8
6.64000E+0	1.50000E+0	2.50070E-8
6.65000E+0	1.50000E+0	2.55987E-8
6.66000E+0	1.50000E+0	2.46099E-8
6.67000E+0	1.50000E+0	2.48913E-8
6.68000E+0	1.50000E+0	2.55268E-8
6.69000E+0	1.49999E+0	2.50149E-8
6.70000E+0	1.50001E+0	2.52059E-8
6.71000E+0	1.50000E+0	2.62457E-8
6.72000E+0	1.50000E+0	2.64066E-8
6.73000E+0	1.49999E+0	2.66848E-8
6.74000E+0	1.50000E+0	2.56394E-8
6.75000E+0	1.50000E+0	2.52835E-8
6.76000E+0	1.50001E+0	2.55229E-8
6.77000E+0	1.50000E+0	2.62799E-8
6.78000E+0	1.50000E+0	2.67454E-8
6.79000E+0	1.50000E+0	2.72184E-8
6.80000E+0	1.50001E+0	2.71834E-8
6.81000E+0	1.50000E+0	2.71814E-8
6.82000E+0	1.50000E+0	2.62502E-8
6.83000E+0	1.50000E+0	2.70425E-8
6.84000E+0	1.50000E+0	2.76887E-8
6.85000E+0	1.49999E+0	2.82443E-8
6.86000E+0	1.50001E+0	2.93475E-8
6.87000E+0	1.50000E+0	2.87897E-8
6.88000E+0	1.50000E+0	2.80404E-8
6.89000E+0	1.50000E+0	2.75526E-8
6.90000E+0	1.50000E+0	2.74214E-8
6.91000E+0	1.50000E+0	2.56985E-8
6.92000E+0	1.50001E+0	2.57525E-8
6.93000E+0	1.50000E+0	2.60617E-8
6.94000E+0	1.50000E+0	2.65444E-8
6.95000E+0	1.50000E+0	2.63085E-8
6.96000E+0	1.50000E+0	2.74006E-8
6.97000E+0	1.50000E+0	2.72015E-8
6.98000E+0	1.49999E+0	2.71830E-8
6.99000E+0	1.50001E+0	2.69891E-8
7.00000E+0	1.50000E+0	2.63364E-8
7.01000E+0	1.50000E+0	2.65583E-8
7.02000E+0	1.49999E+0	2.69214E-8
7.03000E+0	1.50000E+0	2.74003E-8
7.04000E+0	1.50000E+0	2.78317E-8
7.05000E+0	1.50001E+0	2.69243E-8
7.06000E+0	1.50000E+0	2.66485E-8
7.07000E+0	1.50000E+0	2.76927E-8
7.08000E+0	1.50000E+0	2.70946E-8
7.09000E+0	1.50000E+0	2.55434E-8
7.10000E+0	1.50000E+0	2.63116E-8
7.11000E+0	1.50000E+0	2.66224E-8
7.12000E+0	1.50001E+0	2.65944E-8
7.13000E+0	1.50000E+0	2.71098E-8
7.14000E+0	1.50000E+0	2.76136E-8
7.15000E+0	1.50000E+0	2.68536E-8
7.16000E+0	1.49999E+0	2.61778E-8
7.17000E+0	1.50001E+0	2.69390E-8
7.18000E+0	1.50000E+0	2.68308E-8
7.19000E+0	1.50000E+0	2.70021E-8
7.20000E+0	1.50000E+0	2.77246E-8
7.21000E+0	1.49999E+0	2.76524E-8
7.22000E+0	1.50000E+0	2.77268E-8
7.23000E+0	1.50001E+0	2.68257E-8
7.24000E+0	1.50000E+0	2.81440E-8
7.25000E+0	1.50000E+0	2.82980E-8
7.26000E+0	1.50000E+0	2.77406E-8
7.27000E+0	1.50000E+0	2.77771E-8
7.28000E+0	1.50000E+0	2.80753E-8
7.29000E+0	1.50000E+0	2.91029E-8
7.30000E+0	1.50000E+0	2.90972E-8
7.31000E+0	1.49999E+0	2.95474E-8
7.32000E+0	1.50001E+0	3.07646E-8
7.33000E+0	1.50000E+0	3.10054E-8
7.34000E+0	1.50000E+0	3.09872E-8
7.35000E+0	1.50000E+0	3.10252E-8
7.36000E+0	1.50000E+0	3.04300E-8
7.37000E+0	1.49999E+0	3.18712E-8
7.38000E+0	1.50001E+0	3.27161E-8
7.39000E+0	1.49999E+0	3.17657E-8
7.40000E+0	1.50000E+0	3.19211E-8
7.41000E+0	1.50000E+0	3.13914E-8
7.42000E+0	1.50000E+0	3.20879E-8
7.43000E+0	1.49999E+0	3.20900E-8
7.44000E+0	1.50000E+0	3.23128E-8
7.45000E+0	1.50000E+0	3.27553E-8
7.46000E+0	1.50000E+0	3.10530E-8
7.47000E+0	1.50000E+0	3.12884E-8
7.48000E+0	1.50000E+0	3.11916E-8
7.49000E+0	1.50000E+0	3.11197E-8
7.50000E+0	1.50000E+0	3.12459E-8
7.51000E+0	1.50000E+0	3.08465E-8
7.52000E+0	1.49999E+0	3.04657E-8
7.53000E+0	1.50000E+0	3.08612E-8
7.54000E+0	1.50000E+0	3.12381E-8
7.55000E+0	1.50001E+0	3.01144E-8
7.56000E+0	1.49999E+0	3.05248E-8
7.57000E+0	1.50000E+0	3.13381E-8
7.58000E+0	1.50000E+0	3.17597E-8
7.59000E+0	1.50000E+0	3.22709E-8
7.60000E+0	1.50001E+0	3.29845E-8
7.61000E+0	1.50000E+0	3.37004E-8
7.62000E+0	1.49999E+0	3.40286E-8
7.63000E+0	1.50000E+0	3.46633E-8
7.64000E+0	1.50000E+0	3.59589E-8
7.65000E+0	1.50000E+0	3.72582E-8
7.66000E+0	1.50000E+0	3.73005E-8
7.67000E+0	1.49999E+0	3.74752E-8
7.68000E+0	1.50000E+0	3.76949E-8
7.69000E+0	1.50001E+0	3.69700E-8
7.70000E+0	1.50000E+0	3.73780E-8
7.71000E+0	1.50000E+0	3.75572E-8
7.72000E+0	1.49999E+0	3.85507E-8
7.73000E+0	1.50000E+0	3.87448E-8
7.74000E+0	1.50000E+0	3.91750E-8
7.75000E+0	1.50000E+0	3.89062E-8
7.76000E+0	1.50000E+0	3.86697E-8
7.77000E+0	1.49999E+0	4.01617E-8
7.78000E+0	1.50000E+0	3.96763E-8
7.79000E+0	1.50001E+0	4.01224E-8
7.80000E+0	1.49999E+0	4.06423E-8
7.81000E+0	1.50000E+0	4.07485E-8
7.82000E+0	1.50000E+0	4.12842E-8
7.83000E+0	1.50001E+0	4.04424E-8
7.84000E+0	1.50000E+0	4.11671E-8
7.85000E+0	1.50000E+0	4.18607E-8
7.86000E+0	1.50000E+0	4.16911E-8
7.87000E+0	1.50001E+0	4.23882E-8
7.88000E+0	1.49999E+0	4.29367E-8
7.89000E+0	1.50001E+0	4.22470E-8
7.90000E+0	1.50000E+0	4.37649E-8
7.91000E+0	1.50000E+0	4.24748E-8
7.92000E+0	1.49999E+0	4.16753E-8
7.93000E+0	1.50000E+0	4.17959E-8
7.94000E+0	1.50000E+0	4.24999E-8
7.95000E+0	1.50000E+0	4.29458E-8
7.96000E+0	1.50000E+0	4.30455E-8
7.97000E+0	1.50000E+0	4.29977E-8
7.98000E+0	1.50000E+0	4.23922E-8
7.99000E+0	1.50000E+0	4.30235E-8
8.00000E+0	1.50000E+0	4.35247E-8
8.01000E+0	1.50000E+0	4.27213E-8
8.02000E+0	1.50000E+0	4.37624E-8
8.03000E+0	1.50000E+0	4.43909E-8
8.04000E+0	1.50000E+0	4.48194E-8
8.05000E+0	1.50000E+0	4.46893E-8
8.06000E+0	1.50000E+0	4.51786E-8
8.07000E+0	1.50000E+0	4.37772E-8
8.08000E+0	1.50000E+0	4.32025E-8
8.09000E+0	1.50000E+0	4.32908E-8
8.10000E+0	1.50000E+0	4.30376E-8
8.11000E+0	1.50000E+0	4.24837E-8
8.12000E+0	1.50000E+0	4.34031E-8
8.13000E+0	1.50000E+0	4.39865E-8
8.14000E+0	1.50000E+0	4.35451E-8
8.15000E+0	1.50000E+0	4.26584E-8
8.16000E+0	1.50000E+0	4.26038E-8
8.17000E+0	1.50000E+0	4.29101E-8
8.18000E+0	1.50000E+0	4.19568E-8
8.19000E+0	1.50000E+0	4.04001E-8
8.20000E+0	1.50000E+0	4.02316E-8
8.21000E+0	1.50001E+0	4.05436E-8
8.22000E+0	1.49999E+0	3.93278E-8
8.23000E+0	1.50000E+0	4.04909E-8
8.24000E+0	1.50000E+0	4.10120E-8
8.25000E+0	1.50000E+0	4.02255E-8
8.26000E+0	1.50000E+0	4.03322E-8
8.27000E+0	1.50000E+0	4.02993E-8
8.28000E+0	1.50000E+0	4.05322E-8
8.29000E+0	1.50000E+0	4.03497E-8
8.30000E+0	2.90727E-2	-5.86942E-8
8.31000E+0	3.04267E-6	-7.83299E-9
8.32000E+0	-1.52538E-6	-6.14139E-9
8.33000E+0	-4.01703E-6	-5.06873E-9
8.34000E+0	1.38156E-6	-4.31335E-9
8.35000E+0	-3.87861E-6	-3.56009E-9
8.36000E+0	6.78015E-6	-2.98223E-9
8.37000E+0	1.51999E-6	-2.80882E-9
8.38000E+0	-4.84759E-6	-2.78416E-9
8.39000E+0	6.08803E-6	-2.72074E-9
8.40000E+0	-3.46333E-6	-2.68546E-9
8.41000E+0	2.76581E-6	-2.61216E-9
8.42000E+0	1.79684E-6	-2.54200E-9
8.43000E+0	-4.43231E-6	-2.59053E-9
8.44000E+0	1.65841E-6	-2.56070E-9
8.45000E+0	3.04267E-6	-2.45866E-9
8.46000E+0	-5.81656E-6	-2.52115E-9
8.47000E+0	5.53432E-6	-2.45227E-9
8.48000E+0	-1.11010E-6	-2.40808E-9
8.49000E+0	-5.53971E-6	-2.42026E-9
8.50000E+0	3.59637E-6	-2.33621E-9
8.51000E+0	-1.66380E-6	-2.31236E-9
8.52000E+0	6.89432E-7	-2.30174E-9
8.53000E+0	2.07369E-6	-2.25458E-9
8.54000E+0	2.62739E-6	-2.21344E-9
8.55000E+0	-6.37027E-6	-2.23912E-9
8.56000E+0	4.98062E-6	-2.19748E-9
8.57000E+0	-1.80223E-6	-2.10053E-9
8.58000E+0	1.24313E-6	-2.15472E-9
8.59000E+0	-3.60176E-6	-2.10258E-9
