## Header ##
[General info]
User	Giorgos_Psaltakis
Device	dev1cell3pmmaeaold
Cell area (cm2)	1
Test	Memristor
Date	2024-02-28
Time	15:32:34
Note	

[Acquisition Settings]
Sampling time (s)	4.000E+0
Voltage Range (V)	6.000E+0
Current Range (A)	1.000E-6
Current Limit (A)	1.000E-6

[Waveform Settings]
V_HRS (V)	1.5000
V_LRS (V)	0.0000
V_READ (V)	0.0000
t_HRS (s)	2.0000
t_LRS (s)	2.0000
t_READ (s)	0.0000
d_HRS (s)	1.0000
d_LRS (s)	0.0000
d_READ (s)	0.0000
Cycles	1

## Data ##
Time (s)	Voltage (V)	Current (A)
0.00000E+0	1.84771E-5	5.12941E-9
4.00000E-3	-2.28672E-6	-1.76381E-10
8.00000E-3	4.63456E-6	-1.66096E-10
1.20000E-2	8.27858E-7	-1.55110E-10
1.60000E-2	-1.92438E-5	-1.37890E-10
2.00000E-2	-4.01703E-6	-1.29319E-10
2.40000E-2	3.25030E-6	-1.60330E-10
2.80000E-2	8.27858E-7	-1.28073E-10
3.20000E-2	1.22480E-5	-1.29709E-10
3.60000E-2	-8.51586E-6	-1.41163E-10
4.00000E-2	-1.78596E-5	-1.91886E-10
4.40000E-2	8.44126E-6	-2.36376E-10
4.80000E-2	2.21211E-6	-8.94262E-11
5.20000E-2	-6.43948E-6	-4.02609E-11
5.60000E-2	1.53625E-5	-3.12189E-10
6.00000E-2	-6.78554E-6	-4.47022E-11
6.40000E-2	1.08637E-5	-2.03262E-10
6.80000E-2	-3.67097E-6	-3.50406E-11
7.20000E-2	8.44126E-6	-1.13424E-10
7.60000E-2	-5.05522E-6	-2.58661E-10
8.00000E-2	-3.67097E-6	-1.23669E-11
8.40000E-2	-2.10333E-7	-1.83393E-10
8.80000E-2	3.25030E-6	-1.65784E-10
9.20000E-2	-5.74735E-6	-7.15833E-11
9.60000E-2	1.86605E-6	-1.48876E-10
1.00000E-1	3.25030E-6	-1.82692E-10
1.04000E-1	1.51999E-6	-2.26871E-10
1.08000E-1	-1.02462E-5	-4.29880E-11
1.12000E-1	7.05700E-6	-2.87879E-10
1.16000E-1	1.29401E-5	-1.05555E-10
1.20000E-1	-4.70916E-6	-1.31657E-10
1.24000E-1	3.59637E-6	-1.25424E-10
1.28000E-1	1.05176E-5	-7.04925E-11
1.32000E-1	-5.05522E-6	-1.46617E-10
1.36000E-1	6.36488E-6	-2.68166E-10
1.40000E-1	3.59637E-6	-7.36871E-11
1.44000E-1	3.59637E-6	-2.24767E-10
1.48000E-1	-6.09342E-6	4.42004E-11
1.52000E-1	-1.16304E-5	-2.38013E-10
1.56000E-1	6.36488E-6	-3.22396E-10
1.60000E-1	-4.01703E-6	8.54182E-11
1.64000E-1	9.13339E-6	-3.15462E-10
1.68000E-1	-1.16304E-5	2.67471E-11
1.72000E-1	4.98062E-6	-2.51492E-10
1.76000E-1	4.63456E-6	3.50842E-11
1.80000E-1	1.17392E-6	-3.22708E-10
1.84000E-1	-1.12844E-5	-4.85201E-11
1.88000E-1	6.01881E-6	-2.64193E-10
1.92000E-1	1.17392E-6	5.71345E-11
1.96000E-1	8.27858E-7	-2.73698E-10
2.00000E-1	6.36488E-6	-6.62071E-11
2.04000E-1	-5.74735E-6	-2.77943E-11
2.08000E-1	-1.40529E-5	-1.71628E-10
2.12000E-1	1.32861E-5	-2.76114E-10
2.16000E-1	8.27858E-7	-1.74900E-10
2.20000E-1	2.21211E-6	-4.66501E-11
2.24000E-1	-9.55405E-6	-9.32815E-12
2.28000E-1	1.25940E-5	-2.68478E-10
2.32000E-1	-7.82373E-6	-1.01503E-10
2.36000E-1	2.55818E-6	-8.45954E-11
2.40000E-1	-4.36310E-6	-1.15217E-10
2.44000E-1	-4.36310E-6	-1.92899E-10
2.48000E-1	-5.74735E-6	-1.53240E-10
2.52000E-1	1.29401E-5	-2.94580E-10
2.56000E-1	-5.56397E-7	9.42227E-11
2.60000E-1	-1.94065E-6	-2.47441E-10
2.64000E-1	1.01716E-5	-1.77628E-10
2.68000E-1	-5.74735E-6	-6.84667E-11
2.72000E-1	-1.16304E-5	-1.43890E-10
2.76000E-1	2.55818E-6	-1.50513E-10
2.80000E-1	1.43243E-5	-2.02327E-10
2.84000E-1	-1.43989E-5	-5.04680E-11
2.88000E-1	6.36488E-6	-1.28540E-10
2.92000E-1	-1.24852E-6	-1.91341E-10
2.96000E-1	-5.05522E-6	-9.19974E-11
3.00000E-1	-1.02462E-5	-1.79186E-10
3.04000E-1	1.43243E-5	-2.33338E-10
3.08000E-1	-2.63278E-6	-9.65166E-11
3.12000E-1	2.21211E-6	-2.14326E-10
3.16000E-1	9.82551E-6	-2.34195E-10
3.20000E-1	7.40307E-6	-2.36648E-11
3.24000E-1	8.44126E-6	-2.22040E-10
3.28000E-1	-7.13161E-6	-7.01029E-11
3.32000E-1	1.29401E-5	-1.67031E-10
3.36000E-1	-5.40129E-6	3.08767E-11
3.40000E-1	-1.59459E-6	-2.77828E-10
3.44000E-1	-3.32491E-6	-2.00691E-10
3.48000E-1	1.86605E-6	-3.07552E-11
3.52000E-1	-8.86193E-6	-8.43616E-11
3.56000E-1	7.40307E-6	-2.65206E-10
3.60000E-1	-8.16980E-6	7.72369E-11
3.64000E-1	-1.24852E-6	-1.52461E-10
3.68000E-1	3.25030E-6	-2.47752E-10
3.72000E-1	-8.51586E-6	-9.79191E-11
3.76000E-1	5.32669E-6	-1.54720E-10
3.80000E-1	6.36488E-6	-1.73576E-10
3.84000E-1	-3.67097E-6	-1.47044E-11
3.88000E-1	1.08637E-5	-2.08327E-10
3.92000E-1	3.59637E-6	-1.94457E-10
3.96000E-1	-1.16304E-5	-1.88847E-10
4.00000E-1	1.36322E-5	-2.04702E-11
4.04000E-1	-1.19765E-5	-2.70192E-10
4.08000E-1	1.43243E-5	-4.64163E-11
4.12000E-1	-1.05922E-5	-1.15762E-10
4.16000E-1	6.71094E-6	-1.04386E-10
4.20000E-1	5.67275E-6	-2.52193E-10
4.24000E-1	4.81794E-7	-1.87835E-10
4.28000E-1	-5.40129E-6	5.37841E-11
4.32000E-1	4.28849E-6	-3.06034E-10
4.36000E-1	-1.59459E-6	-1.11009E-10
4.40000E-1	7.40307E-6	-3.48068E-11
4.44000E-1	-1.30147E-5	-2.04275E-10
4.48000E-1	3.25030E-6	-1.18879E-10
4.52000E-1	2.21211E-6	-1.52227E-10
4.56000E-1	4.28849E-6	-1.47630E-10
4.60000E-1	-1.30147E-5	-5.91946E-11
4.64000E-1	1.77850E-5	-2.27572E-10
4.68000E-1	-5.40129E-6	3.41492E-11
4.72000E-1	-2.97884E-6	-2.59518E-10
4.76000E-1	-5.74735E-6	-1.72173E-10
4.80000E-1	-7.82373E-6	-1.18021E-10
4.84000E-1	1.91692E-5	-1.65706E-10
4.88000E-1	1.17392E-6	-8.25695E-11
4.92000E-1	-6.09342E-6	-8.38162E-11
4.96000E-1	-2.97884E-6	-2.61933E-10
5.00000E-1	1.57086E-5	-2.75179E-10
5.04000E-1	-8.51586E-6	1.46505E-10
5.08000E-1	1.17392E-6	-1.89860E-10
5.12000E-1	1.51999E-6	-4.48580E-11
5.16000E-1	1.86605E-6	-2.33338E-10
5.20000E-1	-1.19765E-5	-1.23320E-10
5.24000E-1	1.17392E-6	-2.07314E-10
5.28000E-1	8.44126E-6	-2.41285E-10
5.32000E-1	8.27858E-7	-7.54012E-11
5.36000E-1	1.01716E-5	-3.62872E-11
5.40000E-1	-8.86193E-6	-9.97111E-11
5.44000E-1	-9.02461E-7	-1.14983E-10
5.48000E-1	-1.16304E-5	-1.37267E-10
5.52000E-1	6.01881E-6	-2.46428E-10
5.56000E-1	5.32669E-6	-3.05214E-11
5.60000E-1	-7.82373E-6	-1.25190E-10
5.64000E-1	-5.56397E-7	-2.11755E-10
5.68000E-1	4.63456E-6	-1.84640E-10
5.72000E-1	2.55818E-6	-1.48721E-10
5.76000E-1	4.63456E-6	-1.16074E-10
5.80000E-1	-8.51586E-6	-1.93756E-10
5.84000E-1	1.60547E-5	-7.02588E-11
5.88000E-1	-2.28672E-6	-3.36381E-11
5.92000E-1	-5.56397E-7	-2.70738E-10
5.96000E-1	-1.59459E-6	5.31608E-11
6.00000E-1	7.40307E-6	-2.08249E-10
6.04000E-1	-9.20799E-6	-1.68355E-10
6.08000E-1	-1.94065E-6	-1.90094E-10
6.12000E-1	1.01716E-5	-1.94573E-11
6.16000E-1	-4.36310E-6	-8.30370E-11
6.20000E-1	-5.56397E-7	-2.16508E-10
6.24000E-1	-9.90012E-6	-7.12717E-11
6.28000E-1	-1.16304E-5	-2.06457E-10
6.32000E-1	5.32669E-6	-1.73654E-10
6.36000E-1	-3.32491E-6	-1.57993E-10
6.40000E-1	1.08637E-5	-1.57952E-11
6.44000E-1	-1.59459E-6	-1.43812E-10
6.48000E-1	3.94243E-6	-3.18189E-10
6.52000E-1	-5.56397E-7	2.42538E-11
6.56000E-1	-5.56397E-7	-3.21149E-10
6.60000E-1	-6.09342E-6	4.92650E-11
6.64000E-1	8.44126E-6	-1.96483E-10
6.68000E-1	-9.20799E-6	-4.61047E-11
6.72000E-1	1.17392E-6	-3.47174E-10
6.76000E-1	-1.59459E-6	4.13954E-11
6.80000E-1	-5.05522E-6	-2.40896E-10
6.84000E-1	1.08637E-5	-1.26786E-11
6.88000E-1	-1.05922E-5	-2.16975E-10
6.92000E-1	7.40307E-6	-1.62823E-10
6.96000E-1	1.01716E-5	-1.67109E-10
7.00000E-1	-5.56397E-7	-1.67732E-10
7.04000E-1	5.32669E-6	-1.14749E-10
7.08000E-1	-5.40129E-6	-1.00724E-10
7.12000E-1	-4.70916E-6	-2.93901E-12
7.16000E-1	-1.05922E-5	-1.40617E-10
7.20000E-1	-2.28672E-6	-2.78529E-10
7.24000E-1	-1.33608E-5	-1.27605E-10
7.28000E-1	2.55818E-6	-1.17710E-10
7.32000E-1	1.01716E-5	-2.53440E-10
7.36000E-1	8.27858E-7	-1.45136E-10
7.40000E-1	4.81794E-7	-3.56234E-12
7.44000E-1	-4.01703E-6	-1.84796E-10
7.48000E-1	8.78732E-6	-8.54524E-11
7.52000E-1	-5.05522E-6	-1.77939E-10
7.56000E-1	1.08637E-5	-7.92971E-11
7.60000E-1	-7.82373E-6	-1.11165E-10
7.64000E-1	-3.32491E-6	-1.65005E-10
7.68000E-1	-9.02461E-7	-9.75295E-11
7.72000E-1	2.90424E-6	-1.75524E-10
7.76000E-1	-1.57832E-5	-9.23091E-11
7.80000E-1	4.28849E-6	-1.82536E-10
7.84000E-1	1.05176E-5	-2.46116E-10
7.88000E-1	8.78732E-6	-1.38825E-10
7.92000E-1	-9.20799E-6	-5.98959E-11
7.96000E-1	-5.40129E-6	-5.07017E-11
8.00000E-1	1.42771E+0	1.24500E-7
8.04000E-1	1.50000E+0	1.43417E-8
8.08000E-1	1.50000E+0	9.37718E-9
8.12000E-1	1.50000E+0	8.02743E-9
8.16000E-1	1.50000E+0	7.21282E-9
8.20000E-1	1.50000E+0	6.98351E-9
8.24000E-1	1.49999E+0	6.66281E-9
8.28000E-1	1.50000E+0	6.61107E-9
8.32000E-1	1.50000E+0	6.38574E-9
8.36000E-1	1.50000E+0	6.09877E-9
8.40000E-1	1.50000E+0	6.36361E-9
8.44000E-1	1.50000E+0	6.15806E-9
8.48000E-1	1.50000E+0	5.99701E-9
8.52000E-1	1.50000E+0	6.10126E-9
8.56000E-1	1.50001E+0	5.96351E-9
8.60000E-1	1.49999E+0	5.85100E-9
8.64000E-1	1.49999E+0	5.87897E-9
8.68000E-1	1.50001E+0	5.74082E-9
8.72000E-1	1.50000E+0	5.94286E-9
8.76000E-1	1.50001E+0	5.77004E-9
8.80000E-1	1.49999E+0	5.80393E-9
8.84000E-1	1.49999E+0	5.56458E-9
8.88000E-1	1.50001E+0	5.70864E-9
8.92000E-1	1.50000E+0	5.77214E-9
8.96000E-1	1.49999E+0	5.57930E-9
9.00000E-1	1.50000E+0	5.58180E-9
9.04000E-1	1.50001E+0	5.45604E-9
9.08000E-1	1.49999E+0	5.70225E-9
9.12000E-1	1.50001E+0	5.37095E-9
9.16000E-1	1.50000E+0	5.54767E-9
9.20000E-1	1.50000E+0	5.58405E-9
9.24000E-1	1.50000E+0	5.40765E-9
9.28000E-1	1.50001E+0	5.54829E-9
9.32000E-1	1.49998E+0	5.31665E-9
9.36000E-1	1.50002E+0	5.37555E-9
9.40000E-1	1.50000E+0	5.46889E-9
9.44000E-1	1.49999E+0	5.37243E-9
9.48000E-1	1.50000E+0	5.44529E-9
9.52000E-1	1.50000E+0	5.51151E-9
9.56000E-1	1.49999E+0	5.39643E-9
9.60000E-1	1.50001E+0	5.26047E-9
9.64000E-1	1.50000E+0	5.34758E-9
9.68000E-1	1.50001E+0	5.41622E-9
9.72000E-1	1.49999E+0	5.27761E-9
9.76000E-1	1.50000E+0	5.44232E-9
9.80000E-1	1.50000E+0	5.20678E-9
9.84000E-1	1.50000E+0	5.20343E-9
9.88000E-1	1.50000E+0	5.43687E-9
9.92000E-1	1.50001E+0	5.15076E-9
9.96000E-1	1.49999E+0	5.24255E-9
1.00000E+0	1.50001E+0	5.19198E-9
1.00400E+0	1.50000E+0	5.31922E-9
1.00800E+0	1.49999E+0	5.38848E-9
1.01200E+0	1.50002E+0	5.16206E-9
1.01600E+0	1.50000E+0	5.14671E-9
1.02000E+0	1.50000E+0	5.43991E-9
1.02400E+0	1.50001E+0	5.04215E-9
1.02800E+0	1.50001E+0	5.23125E-9
1.03200E+0	1.50000E+0	5.18489E-9
1.03600E+0	1.49999E+0	5.29849E-9
1.04000E+0	1.49999E+0	5.21606E-9
1.04400E+0	1.50001E+0	5.06755E-9
1.04800E+0	1.49999E+0	5.21746E-9
1.05200E+0	1.50001E+0	5.16977E-9
1.05600E+0	1.49999E+0	5.22954E-9
1.06000E+0	1.50000E+0	5.11687E-9
1.06400E+0	1.50001E+0	5.28673E-9
1.06800E+0	1.50000E+0	5.24683E-9
1.07200E+0	1.49999E+0	5.20523E-9
1.07600E+0	1.50001E+0	5.23647E-9
1.08000E+0	1.50000E+0	5.05048E-9
1.08400E+0	1.50002E+0	5.09404E-9
1.08800E+0	1.50000E+0	5.32490E-9
1.09200E+0	1.49999E+0	5.13089E-9
1.09600E+0	1.50000E+0	5.33605E-9
1.10000E+0	1.50000E+0	5.11212E-9
1.10400E+0	1.50001E+0	6.89024E-9
1.10800E+0	1.49999E+0	9.28462E-9
1.11200E+0	1.49999E+0	1.19773E-8
1.11600E+0	1.50001E+0	1.45117E-8
1.12000E+0	1.49999E+0	1.69390E-8
1.12400E+0	1.50001E+0	1.71034E-8
1.12800E+0	1.50000E+0	1.57139E-8
1.13200E+0	1.49999E+0	1.53420E-8
1.13600E+0	1.49999E+0	1.93772E-8
1.14000E+0	1.50002E+0	2.41633E-8
1.14400E+0	1.50000E+0	2.31103E-8
1.14800E+0	1.50001E+0	2.05430E-8
1.15200E+0	1.49998E+0	2.10193E-8
1.15600E+0	1.50001E+0	2.07097E-8
1.16000E+0	1.50000E+0	2.19844E-8
1.16400E+0	1.50000E+0	2.11656E-8
1.16800E+0	1.50001E+0	2.00116E-8
1.17200E+0	1.50000E+0	1.84050E-8
1.17600E+0	1.50000E+0	2.04533E-8
1.18000E+0	1.50000E+0	1.94124E-8
1.18400E+0	1.50000E+0	1.87906E-8
1.18800E+0	1.49999E+0	1.80864E-8
1.19200E+0	1.50000E+0	1.76423E-8
1.19600E+0	1.50001E+0	1.58064E-8
1.20000E+0	1.50001E+0	1.68970E-8
1.20400E+0	1.50000E+0	1.78870E-8
1.20800E+0	1.50001E+0	1.73028E-8
1.21200E+0	1.50000E+0	1.63702E-8
1.21600E+0	1.50000E+0	1.73453E-8
1.22000E+0	1.50000E+0	1.64334E-8
1.22400E+0	1.49999E+0	1.70013E-8
1.22800E+0	1.50001E+0	1.49044E-8
1.23200E+0	1.49999E+0	1.55187E-8
1.23600E+0	1.50000E+0	1.54088E-8
1.24000E+0	1.50000E+0	1.52870E-8
1.24400E+0	1.50000E+0	1.49300E-8
1.24800E+0	1.50001E+0	1.49959E-8
1.25200E+0	1.49999E+0	1.45758E-8
1.25600E+0	1.50000E+0	1.50412E-8
1.26000E+0	1.50001E+0	1.46217E-8
1.26400E+0	1.49999E+0	1.49159E-8
1.26800E+0	1.50000E+0	1.51813E-8
1.27200E+0	1.50001E+0	1.47505E-8
1.27600E+0	1.50000E+0	1.47270E-8
1.28000E+0	1.50000E+0	1.48966E-8
1.28400E+0	1.49999E+0	1.40151E-8
1.28800E+0	1.50000E+0	1.41633E-8
1.29200E+0	1.50000E+0	1.40022E-8
1.29600E+0	1.50000E+0	1.36634E-8
1.30000E+0	1.50001E+0	1.32689E-8
1.30400E+0	1.49999E+0	1.37620E-8
1.30800E+0	1.50000E+0	1.31310E-8
1.31200E+0	1.50001E+0	1.29341E-8
1.31600E+0	1.49999E+0	1.29410E-8
1.32000E+0	1.50001E+0	1.26321E-8
1.32400E+0	1.50000E+0	1.26194E-8
1.32800E+0	1.50000E+0	1.23838E-8
1.33200E+0	1.50000E+0	1.23982E-8
1.33600E+0	1.50000E+0	1.33501E-8
1.34000E+0	1.49999E+0	1.34067E-8
1.34400E+0	1.50001E+0	1.30190E-8
1.34800E+0	1.50001E+0	1.34200E-8
1.35200E+0	1.49999E+0	1.27731E-8
1.35600E+0	1.50001E+0	1.29721E-8
1.36000E+0	1.50000E+0	1.22034E-8
1.36400E+0	1.50000E+0	1.22223E-8
1.36800E+0	1.50000E+0	1.22121E-8
1.37200E+0	1.50000E+0	1.15586E-8
1.37600E+0	1.50000E+0	1.16264E-8
1.38000E+0	1.50000E+0	1.13244E-8
1.38400E+0	1.50000E+0	1.20291E-8
1.38800E+0	1.50000E+0	1.14925E-8
1.39200E+0	1.50001E+0	1.28858E-8
1.39600E+0	1.49999E+0	1.21900E-8
1.40000E+0	1.50001E+0	1.28969E-8
1.40400E+0	1.49998E+0	1.28307E-8
1.40800E+0	1.50002E+0	1.32434E-8
1.41200E+0	1.50001E+0	1.27713E-8
1.41600E+0	1.49999E+0	1.29663E-8
1.42000E+0	1.50000E+0	1.33251E-8
1.42400E+0	1.50001E+0	1.36508E-8
1.42800E+0	1.49999E+0	1.36331E-8
1.43200E+0	1.50001E+0	1.40362E-8
1.43600E+0	1.50000E+0	1.39731E-8
1.44000E+0	1.50001E+0	1.47434E-8
1.44400E+0	1.50000E+0	1.52150E-8
1.44800E+0	1.50000E+0	1.38688E-8
1.45200E+0	1.49999E+0	1.50521E-8
1.45600E+0	1.50000E+0	1.51649E-8
1.46000E+0	1.50001E+0	1.58883E-8
1.46400E+0	1.50000E+0	1.64725E-8
1.46800E+0	1.49999E+0	1.59996E-8
1.47200E+0	1.50000E+0	1.67731E-8
1.47600E+0	1.50001E+0	1.72042E-8
1.48000E+0	1.50000E+0	1.67947E-8
1.48400E+0	1.50000E+0	1.70837E-8
1.48800E+0	1.50000E+0	1.74460E-8
1.49200E+0	1.49999E+0	1.76785E-8
1.49600E+0	1.50000E+0	1.73752E-8
1.50000E+0	1.50000E+0	1.72109E-8
1.50400E+0	1.50001E+0	1.77095E-8
1.50800E+0	1.50001E+0	1.73335E-8
1.51200E+0	1.50000E+0	1.76934E-8
1.51600E+0	1.50001E+0	1.73461E-8
1.52000E+0	1.50000E+0	1.76262E-8
1.52400E+0	1.50000E+0	1.70202E-8
1.52800E+0	1.50000E+0	1.66865E-8
1.53200E+0	1.50000E+0	1.63583E-8
1.53600E+0	1.50000E+0	1.63911E-8
1.54000E+0	1.50000E+0	1.63244E-8
1.54400E+0	1.50000E+0	1.75374E-8
1.54800E+0	1.50000E+0	1.79796E-8
1.55200E+0	1.50000E+0	1.74099E-8
1.55600E+0	1.50000E+0	1.77182E-8
1.56000E+0	1.49999E+0	1.70394E-8
1.56400E+0	1.50000E+0	1.73262E-8
1.56800E+0	1.50000E+0	1.68314E-8
1.57200E+0	1.50002E+0	1.58865E-8
1.57600E+0	1.49999E+0	1.86185E-8
1.58000E+0	1.49999E+0	1.75789E-8
1.58400E+0	1.50000E+0	1.83531E-8
1.58800E+0	1.50001E+0	1.75468E-8
1.59200E+0	1.50001E+0	1.76705E-8
1.59600E+0	1.50000E+0	1.76697E-8
1.60000E+0	1.50000E+0	1.79523E-8
1.60400E+0	1.50000E+0	1.74184E-8
1.60800E+0	1.50000E+0	1.84827E-8
1.61200E+0	1.49999E+0	1.90107E-8
1.61600E+0	1.50000E+0	1.85756E-8
1.62000E+0	1.49999E+0	1.78377E-8
1.62400E+0	1.50000E+0	1.72785E-8
1.62800E+0	1.49999E+0	1.75155E-8
1.63200E+0	1.49999E+0	1.72576E-8
1.63600E+0	1.50001E+0	1.74390E-8
1.64000E+0	1.50000E+0	1.78614E-8
1.64400E+0	1.50000E+0	1.72518E-8
1.64800E+0	1.49999E+0	1.72946E-8
1.65200E+0	1.50001E+0	1.73875E-8
1.65600E+0	1.50001E+0	1.73001E-8
1.66000E+0	1.50000E+0	1.76694E-8
1.66400E+0	1.50000E+0	1.69320E-8
1.66800E+0	1.50000E+0	1.70878E-8
1.67200E+0	1.49999E+0	1.73654E-8
1.67600E+0	1.50000E+0	1.77043E-8
1.68000E+0	1.50000E+0	1.70008E-8
1.68400E+0	1.50000E+0	1.70470E-8
1.68800E+0	1.50000E+0	1.72827E-8
1.69200E+0	1.50000E+0	1.66179E-8
1.69600E+0	1.50000E+0	1.60400E-8
1.70000E+0	1.50000E+0	1.60025E-8
1.70400E+0	1.50001E+0	1.69076E-8
1.70800E+0	1.50000E+0	1.71581E-8
1.71200E+0	1.49999E+0	1.59590E-8
1.71600E+0	1.50001E+0	1.72624E-8
1.72000E+0	1.49998E+0	1.71782E-8
1.72400E+0	1.50002E+0	1.70750E-8
1.72800E+0	1.49999E+0	1.63336E-8
1.73200E+0	1.49999E+0	1.73238E-8
1.73600E+0	1.50000E+0	1.86143E-8
1.74000E+0	1.50000E+0	1.78814E-8
1.74400E+0	1.50001E+0	1.81476E-8
1.74800E+0	1.49999E+0	1.82634E-8
1.75200E+0	1.50001E+0	1.82493E-8
1.75600E+0	1.50000E+0	1.82135E-8
1.76000E+0	1.50000E+0	1.81816E-8
1.76400E+0	1.50000E+0	1.79252E-8
1.76800E+0	1.50000E+0	1.82755E-8
1.77200E+0	1.50000E+0	1.79397E-8
1.77600E+0	1.50000E+0	1.75078E-8
1.78000E+0	1.50000E+0	1.81598E-8
1.78400E+0	1.49999E+0	1.78856E-8
1.78800E+0	1.50002E+0	1.79417E-8
1.79200E+0	1.50001E+0	1.82589E-8
1.79600E+0	1.49999E+0	1.77272E-8
1.80000E+0	1.50001E+0	1.75411E-8
1.80400E+0	1.50000E+0	1.77638E-8
1.80800E+0	1.50001E+0	1.66303E-8
1.81200E+0	1.49998E+0	1.74132E-8
1.81600E+0	1.50000E+0	1.65396E-8
1.82000E+0	1.50001E+0	1.59823E-8
1.82400E+0	1.50000E+0	1.64893E-8
1.82800E+0	1.50001E+0	1.70691E-8
1.83200E+0	1.50000E+0	1.68810E-8
1.83600E+0	1.50000E+0	1.67274E-8
1.84000E+0	1.50000E+0	1.68800E-8
1.84400E+0	1.49999E+0	1.71980E-8
1.84800E+0	1.50000E+0	1.71556E-8
1.85200E+0	1.50000E+0	1.69723E-8
1.85600E+0	1.49999E+0	1.70115E-8
1.86000E+0	1.50001E+0	1.72312E-8
1.86400E+0	1.50001E+0	1.70838E-8
1.86800E+0	1.50000E+0	1.66705E-8
1.87200E+0	1.49999E+0	1.67749E-8
1.87600E+0	1.50001E+0	1.63982E-8
1.88000E+0	1.50000E+0	1.59871E-8
1.88400E+0	1.50000E+0	1.57602E-8
1.88800E+0	1.50001E+0	1.57667E-8
1.89200E+0	1.49999E+0	1.60463E-8
1.89600E+0	1.49998E+0	1.75303E-8
1.90000E+0	1.50002E+0	1.59144E-8
1.90400E+0	1.50000E+0	1.57384E-8
1.90800E+0	1.50000E+0	1.54110E-8
1.91200E+0	1.50000E+0	1.57318E-8
1.91600E+0	1.49999E+0	1.58797E-8
1.92000E+0	1.50002E+0	1.63960E-8
1.92400E+0	1.50000E+0	1.61211E-8
1.92800E+0	1.50001E+0	1.57826E-8
1.93200E+0	1.49999E+0	1.60936E-8
1.93600E+0	1.50001E+0	1.53256E-8
1.94000E+0	1.49999E+0	1.58181E-8
1.94400E+0	1.50000E+0	1.54497E-8
1.94800E+0	1.50000E+0	1.57147E-8
1.95200E+0	1.50001E+0	1.60704E-8
1.95600E+0	1.49999E+0	1.53279E-8
1.96000E+0	1.50000E+0	1.56307E-8
1.96400E+0	1.50001E+0	1.59209E-8
1.96800E+0	1.49999E+0	1.58577E-8
1.97200E+0	1.49999E+0	1.61332E-8
1.97600E+0	1.50002E+0	1.55837E-8
1.98000E+0	1.49998E+0	1.57093E-8
1.98400E+0	1.50000E+0	1.54512E-8
1.98800E+0	1.50000E+0	1.57723E-8
1.99200E+0	1.50001E+0	1.50941E-8
1.99600E+0	1.50000E+0	1.58350E-8
2.00000E+0	1.50000E+0	1.53676E-8
2.00400E+0	1.50001E+0	1.55872E-8
2.00800E+0	1.49999E+0	1.51670E-8
2.01200E+0	1.50001E+0	1.67620E-8
2.01600E+0	1.50000E+0	1.68134E-8
2.02000E+0	1.50000E+0	1.66102E-8
2.02400E+0	1.50001E+0	1.69424E-8
2.02800E+0	1.49999E+0	1.69817E-8
2.03200E+0	1.50000E+0	1.73305E-8
2.03600E+0	1.50000E+0	1.69385E-8
2.04000E+0	1.49999E+0	1.71853E-8
2.04400E+0	1.50002E+0	1.75838E-8
2.04800E+0	1.49998E+0	1.73001E-8
2.05200E+0	1.50000E+0	1.72921E-8
2.05600E+0	1.50001E+0	1.70240E-8
2.06000E+0	1.49998E+0	1.72042E-8
2.06400E+0	1.50000E+0	1.75413E-8
2.06800E+0	1.50000E+0	1.79127E-8
2.07200E+0	1.50000E+0	1.75600E-8
2.07600E+0	1.50000E+0	1.81180E-8
2.08000E+0	1.50000E+0	1.68970E-8
2.08400E+0	1.50000E+0	1.73338E-8
2.08800E+0	1.50001E+0	1.72132E-8
2.09200E+0	1.49999E+0	1.75950E-8
2.09600E+0	1.50000E+0	1.76755E-8
2.10000E+0	1.50000E+0	1.70378E-8
2.10400E+0	1.50000E+0	1.74202E-8
2.10800E+0	1.49999E+0	1.78203E-8
2.11200E+0	1.50000E+0	1.79904E-8
2.11600E+0	1.49999E+0	1.78997E-8
2.12000E+0	1.50000E+0	1.79389E-8
2.12400E+0	1.50001E+0	1.81447E-8
2.12800E+0	1.50000E+0	1.78717E-8
2.13200E+0	1.50000E+0	1.67481E-8
2.13600E+0	1.50001E+0	1.61232E-8
2.14000E+0	1.49999E+0	1.60564E-8
2.14400E+0	1.49998E+0	1.62996E-8
2.14800E+0	1.50001E+0	1.58450E-8
2.15200E+0	1.49999E+0	1.59199E-8
2.15600E+0	1.50000E+0	1.56257E-8
2.16000E+0	1.50000E+0	1.55429E-8
2.16400E+0	1.49999E+0	1.59268E-8
2.16800E+0	1.50000E+0	1.63139E-8
2.17200E+0	1.50001E+0	1.61750E-8
2.17600E+0	1.49999E+0	1.64941E-8
2.18000E+0	1.49999E+0	1.67617E-8
2.18400E+0	1.50000E+0	1.57754E-8
2.18800E+0	1.50000E+0	1.60211E-8
2.19200E+0	1.50001E+0	1.56207E-8
2.19600E+0	1.50001E+0	1.62372E-8
2.20000E+0	1.49999E+0	1.59984E-8
2.20400E+0	1.49999E+0	1.57029E-8
2.20800E+0	1.50001E+0	1.62642E-8
2.21200E+0	1.50001E+0	1.56632E-8
2.21600E+0	1.49998E+0	1.66742E-8
2.22000E+0	1.50001E+0	1.62314E-8
2.22400E+0	1.50000E+0	1.67607E-8
2.22800E+0	1.50000E+0	1.74123E-8
2.23200E+0	1.50000E+0	1.69644E-8
2.23600E+0	1.49999E+0	1.63986E-8
2.24000E+0	1.50001E+0	1.64214E-8
2.24400E+0	1.49999E+0	1.66691E-8
2.24800E+0	1.49999E+0	1.63823E-8
2.25200E+0	1.50001E+0	1.63143E-8
2.25600E+0	1.49999E+0	1.62870E-8
2.26000E+0	1.50002E+0	1.58699E-8
2.26400E+0	1.49998E+0	1.57708E-8
2.26800E+0	1.50000E+0	1.59419E-8
2.27200E+0	1.49999E+0	1.57366E-8
2.27600E+0	1.50002E+0	1.58060E-8
2.28000E+0	1.49999E+0	1.64390E-8
2.28400E+0	1.50001E+0	1.60794E-8
2.28800E+0	1.49999E+0	1.65009E-8
2.29200E+0	1.50000E+0	1.67312E-8
2.29600E+0	1.50000E+0	1.67555E-8
2.30000E+0	1.50000E+0	1.64472E-8
2.30400E+0	1.50000E+0	1.64719E-8
2.30800E+0	1.50000E+0	1.64078E-8
2.31200E+0	1.50000E+0	1.66267E-8
2.31600E+0	1.50001E+0	1.71849E-8
2.32000E+0	1.50000E+0	1.68979E-8
2.32400E+0	1.49999E+0	1.67733E-8
2.32800E+0	1.50000E+0	1.70518E-8
2.33200E+0	1.50000E+0	1.63287E-8
2.33600E+0	1.50001E+0	1.73726E-8
2.34000E+0	1.49999E+0	1.71452E-8
2.34400E+0	1.50001E+0	1.70590E-8
2.34800E+0	1.49999E+0	1.68473E-8
2.35200E+0	1.50000E+0	1.68817E-8
2.35600E+0	1.49999E+0	1.77580E-8
2.36000E+0	1.50000E+0	1.72894E-8
2.36400E+0	1.49999E+0	1.73448E-8
2.36800E+0	1.49999E+0	1.71224E-8
2.37200E+0	1.50000E+0	1.73519E-8
2.37600E+0	1.50000E+0	1.73723E-8
2.38000E+0	1.49999E+0	1.75245E-8
2.38400E+0	1.50002E+0	1.71681E-8
2.38800E+0	1.49999E+0	1.74455E-8
2.39200E+0	1.50000E+0	2.46645E-8
2.39600E+0	1.50000E+0	2.60036E-8
2.40000E+0	7.41588E-2	-1.27536E-7
2.40400E+0	3.94243E-6	-7.60843E-9
2.40800E+0	-9.02461E-7	-5.58004E-9
2.41200E+0	-1.94065E-6	-4.90287E-9
2.41600E+0	-2.51269E-5	-4.04649E-9
2.42000E+0	6.01881E-6	-2.97179E-9
2.42400E+0	8.44126E-6	-2.63269E-9
2.42800E+0	-1.24852E-6	-2.56241E-9
2.43200E+0	-3.32491E-6	-2.49213E-9
2.43600E+0	4.81794E-7	-2.63620E-9
2.44000E+0	-1.24852E-6	-2.47585E-9
2.44400E+0	4.63456E-6	-2.52860E-9
2.44800E+0	-1.94065E-6	-2.67617E-9
2.45200E+0	3.59637E-6	-2.26555E-9
2.45600E+0	-8.86193E-6	-2.48497E-9
2.46000E+0	-2.10333E-7	-2.20010E-9
2.46400E+0	2.21211E-6	-2.51200E-9
2.46800E+0	-3.67097E-6	-2.16457E-9
2.47200E+0	1.01716E-5	-2.32072E-9
2.47600E+0	-1.24852E-6	-2.20392E-9
2.48000E+0	-7.82373E-6	-2.30568E-9
2.48400E+0	9.47945E-6	-2.19551E-9
2.48800E+0	3.94243E-6	-2.16940E-9
2.49200E+0	2.21211E-6	-2.04341E-9
2.49600E+0	-9.90012E-6	-2.19893E-9
2.50000E+0	-5.05522E-6	-2.10863E-9
2.50400E+0	-1.24852E-6	-2.18779E-9
2.50800E+0	7.40307E-6	-2.23166E-9
2.51200E+0	7.74913E-6	-2.09149E-9
2.51600E+0	1.17392E-6	-1.89062E-9
2.52000E+0	-8.86193E-6	-2.04497E-9
2.52400E+0	-1.09383E-5	-2.20369E-9
2.52800E+0	5.67275E-6	-1.79868E-9
2.53200E+0	-1.02462E-5	-2.15047E-9
2.53600E+0	1.32861E-5	-1.94952E-9
2.54000E+0	-8.86193E-6	-1.98178E-9
2.54400E+0	2.55818E-6	-2.00142E-9
2.54800E+0	-7.82373E-6	-1.91921E-9
2.55200E+0	1.51999E-6	-1.97921E-9
2.55600E+0	2.21211E-6	-2.10769E-9
2.56000E+0	-3.32491E-6	-1.75691E-9
2.56400E+0	-3.67097E-6	-2.10286E-9
2.56800E+0	-5.05522E-6	-1.86608E-9
2.57200E+0	9.47945E-6	-1.95895E-9
2.57600E+0	-4.36310E-6	-1.90605E-9
2.58000E+0	-2.63278E-6	-1.76681E-9
2.58400E+0	1.29401E-5	-2.04528E-9
2.58800E+0	-8.86193E-6	-1.72746E-9
2.59200E+0	1.50165E-5	-1.82579E-9
2.59600E+0	-1.02462E-5	-1.85088E-9
2.60000E+0	2.90424E-6	-1.83436E-9
2.60400E+0	-1.30147E-5	-1.75169E-9
2.60800E+0	7.74913E-6	-1.86576E-9
2.61200E+0	-6.09342E-6	-1.66100E-9
2.61600E+0	4.63456E-6	-1.92062E-9
2.62000E+0	-1.43989E-5	-1.60685E-9
2.62400E+0	6.01881E-6	-1.85415E-9
2.62800E+0	-5.56397E-7	-1.78076E-9
2.63200E+0	9.13339E-6	-1.69700E-9
2.63600E+0	5.67275E-6	-1.79400E-9
2.64000E+0	-1.19765E-5	-1.55090E-9
2.64400E+0	8.09519E-6	-1.72022E-9
2.64800E+0	-6.43948E-6	-1.71032E-9
2.65200E+0	-5.56397E-7	-1.62929E-9
2.65600E+0	-3.67097E-6	-1.71461E-9
2.66000E+0	2.55818E-6	-1.65858E-9
2.66400E+0	2.21211E-6	-1.63685E-9
2.66800E+0	3.59637E-6	-1.81675E-9
2.67200E+0	1.29401E-5	-1.47057E-9
2.67600E+0	-4.01703E-6	-1.57077E-9
2.68000E+0	-1.59459E-6	-1.69341E-9
2.68400E+0	-1.24852E-6	-1.45429E-9
2.68800E+0	-5.74735E-6	-1.70681E-9
2.69200E+0	1.32861E-5	-1.58215E-9
2.69600E+0	-3.32491E-6	-1.50727E-9
2.70000E+0	4.28849E-6	-1.56937E-9
2.70400E+0	-3.32491E-6	-1.49932E-9
2.70800E+0	-8.51586E-6	-1.62742E-9
2.71200E+0	-5.74735E-6	-1.54693E-9
2.71600E+0	1.25940E-5	-1.49208E-9
2.72000E+0	2.21211E-6	-1.46800E-9
2.72400E+0	-2.63278E-6	-1.43839E-9
2.72800E+0	-5.40129E-6	-1.68617E-9
2.73200E+0	1.05176E-5	-1.39118E-9
2.73600E+0	1.36322E-5	-1.53851E-9
2.74000E+0	-9.55405E-6	-1.43746E-9
2.74400E+0	-6.78554E-6	-1.46855E-9
2.74800E+0	3.94243E-6	-1.32128E-9
2.75200E+0	4.28849E-6	-1.58939E-9
2.75600E+0	-4.70916E-6	-1.31170E-9
2.76000E+0	1.53625E-5	-1.51062E-9
2.76400E+0	-1.54371E-5	-1.43785E-9
2.76800E+0	4.28849E-6	-1.31038E-9
2.77200E+0	6.01881E-6	-1.65929E-9
2.77600E+0	-4.70916E-6	-1.28794E-9
2.78000E+0	-9.20799E-6	-1.40364E-9
2.78400E+0	9.13339E-6	-1.31170E-9
2.78800E+0	4.81794E-7	-1.36461E-9
2.79200E+0	-2.10333E-7	-1.35853E-9
2.79600E+0	4.28849E-6	-1.31458E-9
2.80000E+0	8.27858E-7	-1.37567E-9
2.80400E+0	-2.97884E-6	-1.25716E-9
2.80800E+0	4.63456E-6	-1.51795E-9
2.81200E+0	1.86605E-6	-1.14582E-9
2.81600E+0	-2.63278E-6	-1.42071E-9
2.82000E+0	3.94243E-6	-1.38408E-9
2.82400E+0	7.74913E-6	-1.21119E-9
2.82800E+0	-9.55405E-6	-1.48974E-9
2.83200E+0	1.01716E-5	-1.12938E-9
2.83600E+0	-4.70916E-6	-1.23098E-9
2.84000E+0	-1.33608E-5	-1.38744E-9
2.84400E+0	1.74389E-5	-1.31030E-9
2.84800E+0	-7.13161E-6	-1.33235E-9
2.85200E+0	1.01716E-5	-1.26082E-9
2.85600E+0	-1.94065E-6	-1.14395E-9
2.86000E+0	-8.86193E-6	-1.33788E-9
2.86400E+0	1.57086E-5	-1.22428E-9
2.86800E+0	4.28849E-6	-1.23752E-9
2.87200E+0	-1.95899E-5	-1.24165E-9
2.87600E+0	1.29401E-5	-1.32269E-9
2.88000E+0	-5.74735E-6	-1.30554E-9
2.88400E+0	5.32669E-6	-1.15992E-9
2.88800E+0	-9.02461E-7	-1.38479E-9
2.89200E+0	3.25030E-6	-1.25770E-9
2.89600E+0	1.25940E-5	-1.00518E-9
2.90000E+0	2.21211E-6	-1.32923E-9
2.90400E+0	-6.43948E-6	-1.28373E-9
2.90800E+0	1.01716E-5	-1.24384E-9
2.91200E+0	7.40307E-6	-1.05216E-9
2.91600E+0	-1.26686E-5	-1.29020E-9
2.92000E+0	1.51999E-6	-1.14519E-9
2.92400E+0	7.40307E-6	-1.32409E-9
2.92800E+0	-5.05522E-6	-9.83205E-10
2.93200E+0	-1.94065E-6	-1.25731E-9
2.93600E+0	-1.05922E-5	-1.22482E-9
2.94000E+0	8.44126E-6	-9.99957E-10
2.94400E+0	3.94243E-6	-1.26425E-9
2.94800E+0	-1.26686E-5	-1.07452E-9
2.95200E+0	4.63456E-6	-1.17394E-9
2.95600E+0	6.01881E-6	-1.07795E-9
2.96000E+0	-2.63278E-6	-1.28700E-9
2.96400E+0	-4.36310E-6	-1.00276E-9
2.96800E+0	6.36488E-6	-1.25513E-9
2.97200E+0	-2.97884E-6	-9.74478E-10
2.97600E+0	-1.24852E-6	-1.11901E-9
2.98000E+0	-9.55405E-6	-1.13475E-9
2.98400E+0	6.71094E-6	-1.21454E-9
2.98800E+0	7.74913E-6	-1.01164E-9
2.99200E+0	-1.85517E-5	-1.08060E-9
2.99600E+0	9.82551E-6	-1.16218E-9
3.00000E+0	6.36488E-6	-1.07460E-9
3.00400E+0	-1.16304E-5	-8.77394E-10
3.00800E+0	7.40307E-6	-1.09985E-9
3.01200E+0	4.81794E-7	-1.13802E-9
3.01600E+0	-2.40887E-5	-1.18844E-9
3.02000E+0	8.44126E-6	-1.07468E-9
3.02400E+0	-2.97884E-6	-1.08231E-9
3.02800E+0	8.09519E-6	-1.20698E-9
3.03200E+0	3.59637E-6	-1.08761E-9
3.03600E+0	-4.01703E-6	-1.13834E-9
3.04000E+0	1.12098E-5	-1.04086E-9
3.04400E+0	-6.43948E-6	-1.13062E-9
3.04800E+0	9.13339E-6	-9.96840E-10
3.05200E+0	-5.40129E-6	-1.01562E-9
3.05600E+0	-2.97884E-6	-1.21711E-9
3.06000E+0	8.09519E-6	-9.23209E-10
3.06400E+0	-1.02462E-5	-1.07499E-9
3.06800E+0	-1.23226E-5	-1.13506E-9
3.07200E+0	-9.02461E-7	-1.03237E-9
3.07600E+0	4.28849E-6	-1.07250E-9
3.08000E+0	4.81794E-7	-1.15096E-9
3.08400E+0	3.25030E-6	-1.00487E-9
3.08800E+0	1.25940E-5	-1.15353E-9
3.09200E+0	4.81794E-7	-9.54921E-10
3.09600E+0	-5.40129E-6	-1.06502E-9
3.10000E+0	-4.70916E-6	-8.46228E-10
3.10400E+0	4.81794E-7	-1.10366E-9
3.10800E+0	7.40307E-6	-1.17013E-9
3.11200E+0	2.90424E-6	-8.19658E-10
3.11600E+0	-2.28672E-6	-9.12535E-10
3.12000E+0	2.90424E-6	-1.10623E-9
3.12400E+0	4.98062E-6	-1.09611E-9
3.12800E+0	2.90424E-6	-9.78062E-10
3.13200E+0	-9.90012E-6	-8.98354E-10
3.13600E+0	2.90424E-6	-9.11989E-10
3.14000E+0	-1.19765E-5	-1.03549E-9
3.14400E+0	8.09519E-6	-1.12914E-9
3.14800E+0	-1.05922E-5	-8.85654E-10
3.15200E+0	7.40307E-6	-8.82693E-10
3.15600E+0	-5.74735E-6	-1.10499E-9
3.16000E+0	1.25940E-5	-8.97341E-10
3.16400E+0	-4.01703E-6	-1.01632E-9
3.16800E+0	7.05700E-6	-8.25035E-10
3.17200E+0	-1.82056E-5	-1.01897E-9
3.17600E+0	-9.02461E-7	-9.58350E-10
3.18000E+0	4.28849E-6	-1.03494E-9
3.18400E+0	1.35730E-7	-9.90217E-10
3.18800E+0	-4.70916E-6	-9.55311E-10
3.19200E+0	-1.94065E-6	-1.06930E-9
3.19600E+0	4.81794E-7	-6.59618E-10
3.20000E+0	-4.70916E-6	-9.40663E-10
3.20400E+0	1.86605E-6	-1.10195E-9
3.20800E+0	-1.16304E-5	-7.05745E-10
3.21200E+0	4.63456E-6	-1.02964E-9
3.21600E+0	-6.43948E-6	-7.69402E-10
3.22000E+0	1.12098E-5	-8.46072E-10
3.22400E+0	-1.05922E-5	-8.75057E-10
3.22800E+0	4.81794E-7	-1.00448E-9
3.23200E+0	1.36322E-5	-9.73855E-10
3.23600E+0	-5.56397E-7	-8.14906E-10
3.24000E+0	-2.97884E-6	-9.50246E-10
3.24400E+0	8.44126E-6	-7.89661E-10
3.24800E+0	-7.82373E-6	-9.41052E-10
3.25200E+0	1.17392E-6	-8.19035E-10
3.25600E+0	7.74913E-6	-1.07289E-9
3.26000E+0	-1.94065E-6	-8.40462E-10
3.26400E+0	-2.28672E-6	-7.48599E-10
3.26800E+0	-9.02461E-7	-1.12026E-9
3.27200E+0	-4.36310E-6	-7.24055E-10
3.27600E+0	5.67275E-6	-1.04671E-9
3.28000E+0	8.27858E-7	-8.63058E-10
3.28400E+0	-2.10333E-7	-8.05789E-10
3.28800E+0	6.01881E-6	-8.80745E-10
3.29200E+0	6.36488E-6	-1.03424E-9
3.29600E+0	-1.23226E-5	-8.49578E-10
3.30000E+0	1.77850E-5	-7.87557E-10
3.30400E+0	1.35730E-7	-6.85175E-10
3.30800E+0	-2.97884E-6	-6.40295E-10
3.31200E+0	9.82551E-6	-9.27651E-10
3.31600E+0	-1.05922E-5	-8.09373E-10
3.32000E+0	7.05700E-6	-8.92354E-10
3.32400E+0	-6.43948E-6	-6.20504E-10
3.32800E+0	1.39783E-5	-7.33561E-10
3.33200E+0	-1.30147E-5	-8.27840E-10
3.33600E+0	5.32669E-6	-5.41497E-10
3.34000E+0	-8.16980E-6	-6.89694E-10
3.34400E+0	8.27858E-7	-9.30456E-10
3.34800E+0	4.28849E-6	-7.55222E-10
3.35200E+0	-1.02462E-5	-8.51137E-10
3.35600E+0	-1.94065E-6	-8.28463E-10
3.36000E+0	1.32861E-5	-8.44592E-10
3.36400E+0	-1.19765E-5	-7.68857E-10
3.36800E+0	2.55818E-6	-1.03525E-9
3.37200E+0	4.63456E-6	-6.13024E-10
3.37600E+0	-1.02462E-5	-7.84518E-10
3.38000E+0	6.36488E-6	-9.98087E-10
3.38400E+0	-1.24852E-6	-6.20115E-10
3.38800E+0	2.55818E-6	-8.59630E-10
3.39200E+0	1.86605E-6	-9.04431E-10
3.39600E+0	-1.40529E-5	-6.79643E-10
3.40000E+0	-9.02461E-7	-9.60999E-10
3.40400E+0	1.15558E-5	-8.36800E-10
3.40800E+0	-1.75135E-5	-7.10731E-10
3.41200E+0	9.47945E-6	-1.14379E-9
3.41600E+0	8.78732E-6	-6.52450E-10
3.42000E+0	-1.43989E-5	-7.67299E-10
3.42400E+0	2.21211E-6	-1.01180E-9
3.42800E+0	-4.36310E-6	-7.21795E-10
3.43200E+0	4.81794E-7	-8.05634E-10
3.43600E+0	1.39783E-5	-7.79064E-10
3.44000E+0	-1.54371E-5	-8.60642E-10
3.44400E+0	-3.67097E-6	-9.62090E-10
3.44800E+0	1.84771E-5	-6.58917E-10
3.45200E+0	-1.30147E-5	-8.28697E-10
3.45600E+0	1.17392E-6	-8.44280E-10
3.46000E+0	-2.10333E-7	-8.21762E-10
3.46400E+0	1.12098E-5	-7.33093E-10
3.46800E+0	-6.78554E-6	-9.58583E-10
3.47200E+0	-6.09342E-6	-7.02862E-10
3.47600E+0	2.90424E-6	-8.31502E-10
3.48000E+0	3.94243E-6	-7.52728E-10
3.48400E+0	-1.94065E-6	-9.09106E-10
3.48800E+0	-9.02461E-7	-7.51871E-10
3.49200E+0	4.28849E-6	-7.36366E-10
3.49600E+0	1.17392E-6	-7.53585E-10
3.50000E+0	4.98062E-6	-8.58461E-10
3.50400E+0	-1.23226E-5	-6.15595E-10
3.50800E+0	1.05176E-5	-7.68545E-10
3.51200E+0	-1.40529E-5	-5.99545E-10
3.51600E+0	-1.16304E-5	-9.20015E-10
3.52000E+0	1.88232E-5	-7.64805E-10
3.52400E+0	4.81794E-7	-6.11310E-10
3.52800E+0	-5.05522E-6	-8.22775E-10
3.53200E+0	4.63456E-6	-7.88804E-10
3.53600E+0	-6.09342E-6	-5.62690E-10
3.54000E+0	2.21211E-6	-7.98309E-10
3.54400E+0	-1.23226E-5	-8.61500E-10
3.54800E+0	1.32861E-5	-8.09607E-10
3.55200E+0	-9.55405E-6	-7.63870E-10
3.55600E+0	4.98062E-6	-7.19224E-10
3.56000E+0	2.21211E-6	-5.75546E-10
3.56400E+0	-1.59459E-6	-8.07893E-10
3.56800E+0	-5.05522E-6	-6.99745E-10
3.57200E+0	1.51999E-6	-8.07581E-10
3.57600E+0	1.81310E-5	-7.06212E-10
3.58000E+0	-1.88978E-5	-6.70838E-10
3.58400E+0	9.13339E-6	-8.06257E-10
3.58800E+0	-2.63278E-6	-6.65852E-10
3.59200E+0	6.01881E-6	-7.80700E-10
3.59600E+0	-3.32491E-6	-6.03285E-10
3.60000E+0	-2.63278E-6	-8.94458E-10
3.60400E+0	1.01716E-5	-6.75201E-10
3.60800E+0	-9.02461E-7	-7.27795E-10
3.61200E+0	3.25030E-6	-7.17666E-10
3.61600E+0	-1.94065E-6	-7.62312E-10
3.62000E+0	9.82551E-6	-8.13269E-10
3.62400E+0	-2.10333E-7	-7.10887E-10
3.62800E+0	-7.13161E-6	-6.80188E-10
3.63200E+0	-8.51586E-6	-7.35431E-10
3.63600E+0	1.51999E-6	-8.05556E-10
3.64000E+0	-7.13161E-6	-7.43456E-10
3.64400E+0	7.74913E-6	-6.70604E-10
3.64800E+0	-7.47767E-6	-7.40885E-10
3.65200E+0	-6.78554E-6	-8.24256E-10
3.65600E+0	1.19019E-5	-7.77506E-10
3.66000E+0	4.81794E-7	-6.42321E-10
3.66400E+0	8.09519E-6	-6.78084E-10
3.66800E+0	-9.90012E-6	-6.91954E-10
3.67200E+0	-2.97884E-6	-8.35398E-10
3.67600E+0	1.51999E-6	-7.81791E-10
3.68000E+0	-1.37068E-5	-5.57158E-10
3.68400E+0	1.35730E-7	-6.93824E-10
3.68800E+0	6.01881E-6	-7.28029E-10
3.69200E+0	6.36488E-6	-8.88848E-10
3.69600E+0	-9.02461E-7	-5.54197E-10
3.70000E+0	1.29401E-5	-7.09952E-10
3.70400E+0	-1.26686E-5	-6.52839E-10
3.70800E+0	9.47945E-6	-7.35976E-10
3.71200E+0	-4.70916E-6	-7.88726E-10
3.71600E+0	3.25030E-6	-5.92922E-10
3.72000E+0	3.59637E-6	-7.51248E-10
3.72400E+0	-1.12844E-5	-7.25146E-10
3.72800E+0	9.13339E-6	-6.77695E-10
3.73200E+0	4.81794E-7	-6.04220E-10
3.73600E+0	8.27858E-7	-7.59507E-10
3.74000E+0	-9.02461E-7	-7.21640E-10
3.74400E+0	4.63456E-6	-6.60709E-10
3.74800E+0	-1.02462E-5	-6.40918E-10
3.75200E+0	6.36488E-6	-9.12379E-10
3.75600E+0	4.81794E-7	-3.81457E-10
3.76000E+0	3.25030E-6	-6.82448E-10
3.76400E+0	6.36488E-6	-8.98432E-10
3.76800E+0	-3.32491E-6	-6.48866E-10
3.77200E+0	-2.97884E-6	-6.23855E-10
3.77600E+0	5.32669E-6	-8.84641E-10
3.78000E+0	-3.32491E-6	-5.77105E-10
3.78400E+0	1.15558E-5	-7.44937E-10
3.78800E+0	-9.90012E-6	-6.29465E-10
3.79200E+0	1.46704E-5	-6.95460E-10
3.79600E+0	-1.24852E-6	-6.62735E-10
3.80000E+0	-9.20799E-6	-7.25224E-10
3.80400E+0	-5.05522E-6	-5.92143E-10
3.80800E+0	8.78732E-6	-6.23777E-10
3.81200E+0	-9.20799E-6	-7.60520E-10
3.81600E+0	8.78732E-6	-6.16141E-10
3.82000E+0	-1.26686E-5	-7.76259E-10
3.82400E+0	4.28849E-6	-6.47541E-10
3.82800E+0	4.63456E-6	-8.12334E-10
3.83200E+0	-9.02461E-7	-5.80533E-10
3.83600E+0	-4.01703E-6	-5.56613E-10
3.84000E+0	2.55818E-6	-7.42911E-10
3.84400E+0	-7.47767E-6	-8.54799E-10
3.84800E+0	1.84771E-5	-4.54309E-10
3.85200E+0	-1.43989E-5	-5.64950E-10
3.85600E+0	-2.28672E-6	-5.96506E-10
3.86000E+0	6.36488E-6	-6.04531E-10
3.86400E+0	2.21211E-6	-7.43222E-10
3.86800E+0	-5.74735E-6	-6.95694E-10
3.87200E+0	1.86605E-6	-5.46328E-10
3.87600E+0	4.81794E-7	-5.67054E-10
3.88000E+0	-4.01703E-6	-4.75034E-10
3.88400E+0	8.78732E-6	-6.72474E-10
3.88800E+0	8.27858E-7	-7.10498E-10
3.89200E+0	-5.74735E-6	-5.68534E-10
3.89600E+0	-2.10333E-7	-5.81001E-10
3.90000E+0	-1.24852E-6	-4.83527E-10
3.90400E+0	-4.36310E-6	-5.50224E-10
3.90800E+0	-3.32491E-6	-5.04175E-10
3.91200E+0	1.15558E-5	-7.40495E-10
3.91600E+0	-5.40129E-6	-3.75925E-10
3.92000E+0	3.25030E-6	-5.92143E-10
3.92400E+0	-9.20799E-6	-5.13837E-10
3.92800E+0	-9.90012E-6	-7.52806E-10
3.93200E+0	1.12098E-5	-5.65885E-10
3.93600E+0	-3.67097E-6	-6.06323E-10
3.94000E+0	2.21211E-6	-5.47497E-10
3.94400E+0	1.51999E-6	-6.44113E-10
3.94800E+0	7.40307E-6	-7.76259E-10
3.95200E+0	-1.12844E-5	-6.59384E-10
3.95600E+0	3.25030E-6	-5.86377E-10
3.96000E+0	-5.40129E-6	-5.85831E-10
3.96400E+0	-5.56397E-7	-7.90284E-10
3.96800E+0	-4.70916E-6	-5.04175E-10
3.97200E+0	3.59637E-6	-5.35497E-10
3.97600E+0	4.98062E-6	-8.15607E-10
3.98000E+0	-1.26686E-5	-4.29375E-10
3.98400E+0	-2.63278E-6	-6.58761E-10
3.98800E+0	4.63456E-6	-7.68000E-10
3.99200E+0	1.51999E-6	-6.32270E-10
3.99600E+0	1.51999E-6	-5.82403E-10
