## Header ##
[General info]
User	Giorgos_Psaltakis
Device	Sample
Cell area (cm2)	1
Test	Memristor
Date	2024-03-03
Time	03:40:59
Note	

[Acquisition Settings]
Sampling time (s)	5.000E-1
Voltage Range (V)	6.000E+0
Current Range (A)	1.000E-5
Current Limit (A)	1.000E-5

[Waveform Settings]
V_HRS (V)	2.0000
V_LRS (V)	2.0000
V_READ (V)	2.0000
t_HRS (s)	0.0200
t_LRS (s)	0.0200
t_READ (s)	0.0000
d_HRS (s)	0.0000
d_LRS (s)	0.0000
d_READ (s)	0.0000
Cycles	50

## Data ##
Time (s)	Voltage (V)	Current (A)
0.00000E+0	1.88397E+0	1.28752E-6
5.00000E-4	2.00001E+0	4.44793E-8
1.00000E-3	2.00002E+0	2.82056E-8
1.50000E-3	1.99998E+0	2.67878E-8
2.00000E-3	2.00003E+0	2.07808E-8
2.50000E-3	2.00001E+0	1.87536E-8
3.00000E-3	1.99998E+0	2.01589E-8
3.50000E-3	2.00003E+0	1.60983E-8
4.00000E-3	2.00000E+0	1.52401E-8
4.50000E-3	1.99995E+0	1.52153E-8
5.00000E-3	2.00003E+0	1.36171E-8
5.50000E-3	1.99999E+0	1.25911E-8
6.00000E-3	2.00000E+0	1.51282E-8
6.50000E-3	2.00005E+0	1.21620E-8
7.00000E-3	1.99998E+0	1.41146E-8
7.50000E-3	1.99999E+0	1.40275E-8
8.00000E-3	2.00001E+0	9.51915E-9
8.50000E-3	2.00000E+0	1.19008E-8
9.00000E-3	1.99995E+0	1.23796E-8
9.50000E-3	2.00004E+0	1.08748E-8
1.00000E-2	1.99997E+0	1.20625E-8
1.05000E-2	2.00000E+0	1.25351E-8
1.10000E-2	2.00001E+0	9.33882E-9
1.15000E-2	2.00001E+0	1.15588E-8
1.20000E-2	1.99998E+0	1.22242E-8
1.25000E-2	1.99999E+0	1.11733E-8
1.30000E-2	1.99998E+0	8.84756E-9
1.35000E-2	1.99998E+0	1.32813E-8
1.40000E-2	2.00004E+0	9.07143E-9
1.45000E-2	2.00000E+0	9.73680E-9
1.50000E-2	1.99999E+0	1.19257E-8
1.55000E-2	2.00003E+0	8.13866E-9
1.60000E-2	1.99995E+0	1.11049E-8
1.65000E-2	2.00001E+0	1.15899E-8
1.70000E-2	2.00001E+0	7.92101E-9
1.75000E-2	1.99994E+0	1.11857E-8
1.80000E-2	2.00006E+0	1.06509E-8
1.85000E-2	2.00001E+0	8.36874E-9
1.90000E-2	1.99996E+0	1.12914E-8
1.95000E-2	2.00003E+0	9.38235E-9
2.00000E-2	1.99998E+0	9.58756E-9
2.05000E-2	2.00002E+0	8.64857E-9
2.10000E-2	1.99998E+0	1.30264E-8
2.15000E-2	2.00004E+0	6.88253E-9
2.20000E-2	1.99995E+0	1.08872E-8
2.25000E-2	2.00000E+0	1.04830E-8
2.30000E-2	2.00000E+0	8.46202E-9
2.35000E-2	1.99990E+0	1.07504E-8
2.40000E-2	2.00006E+0	9.06521E-9
2.45000E-2	2.00000E+0	6.76438E-9
2.50000E-2	1.99999E+0	1.01348E-8
2.55000E-2	2.00004E+0	9.02790E-9
2.60000E-2	2.00001E+0	8.87243E-9
2.65000E-2	1.99997E+0	1.07069E-8
2.70000E-2	2.00004E+0	6.47211E-9
2.75000E-2	1.99999E+0	1.09743E-8
2.80000E-2	1.99993E+0	1.12230E-8
2.85000E-2	2.00006E+0	6.86387E-9
2.90000E-2	1.99997E+0	9.41344E-9
2.95000E-2	2.00000E+0	9.55025E-9
3.00000E-2	2.00006E+0	9.43210E-9
3.05000E-2	2.00000E+0	9.48806E-9
3.10000E-2	1.99992E+0	1.17143E-8
3.15000E-2	2.00006E+0	7.27429E-9
3.20000E-2	1.99998E+0	1.08561E-8
3.25000E-2	1.99996E+0	1.05949E-8
3.30000E-2	2.00005E+0	7.10017E-9
3.35000E-2	1.99999E+0	8.36252E-9
3.40000E-2	1.99998E+0	1.27341E-8
3.45000E-2	2.00001E+0	8.28790E-9
3.50000E-2	1.99998E+0	9.83630E-9
3.55000E-2	1.99998E+0	9.47562E-9
3.60000E-2	2.00005E+0	8.84756E-9
3.65000E-2	1.99998E+0	7.25564E-9
3.70000E-2	2.00003E+0	1.16334E-8
3.75000E-2	2.00004E+0	8.37496E-9
3.80000E-2	1.99999E+0	7.64118E-9
3.85000E-2	1.99997E+0	1.13971E-8
3.90000E-2	2.00001E+0	8.25681E-9
3.95000E-2	1.99997E+0	8.90353E-9
4.00000E-2	1.99998E+0	1.47924E-8
4.05000E-2	1.99999E+0	1.84613E-8
4.10000E-2	1.99993E+0	2.12534E-8
4.15000E-2	2.00008E+0	2.14586E-8
4.20000E-2	1.99999E+0	1.86665E-8
4.25000E-2	1.99996E+0	2.18690E-8
4.30000E-2	2.00003E+0	1.99973E-8
4.35000E-2	1.99999E+0	1.70186E-8
4.40000E-2	1.99998E+0	1.94376E-8
4.45000E-2	2.00006E+0	1.82312E-8
4.50000E-2	1.99999E+0	1.88344E-8
4.55000E-2	2.00001E+0	1.91205E-8
4.60000E-2	2.00003E+0	1.90831E-8
4.65000E-2	2.00001E+0	1.59179E-8
4.70000E-2	2.00000E+0	1.93754E-8
4.75000E-2	2.00002E+0	1.86789E-8
4.80000E-2	1.99999E+0	1.41022E-8
4.85000E-2	1.99994E+0	2.00470E-8
4.90000E-2	2.00003E+0	1.51158E-8
4.95000E-2	1.99995E+0	1.67637E-8
5.00000E-2	1.99989E+0	7.58017E-8
5.05000E-2	2.00008E+0	9.39409E-8
5.10000E-2	2.00000E+0	8.02790E-8
5.15000E-2	2.00004E+0	6.91666E-8
5.20000E-2	2.00001E+0	6.48510E-8
5.25000E-2	1.99998E+0	5.45719E-8
5.30000E-2	2.00004E+0	5.42610E-8
5.35000E-2	2.00000E+0	4.61770E-8
5.40000E-2	1.99994E+0	4.72341E-8
5.45000E-2	2.00002E+0	4.30926E-8
5.50000E-2	1.99999E+0	4.00331E-8
5.55000E-2	1.99993E+0	3.73903E-8
5.60000E-2	2.00005E+0	3.77820E-8
5.65000E-2	2.00001E+0	3.38955E-8
5.70000E-2	1.99995E+0	3.25150E-8
5.75000E-2	2.00001E+0	3.36530E-8
5.80000E-2	2.00000E+0	3.28943E-8
5.85000E-2	2.00000E+0	2.80750E-8
5.90000E-2	2.00001E+0	3.07428E-8
5.95000E-2	1.99999E+0	3.30374E-8
6.00000E-2	1.99994E+0	1.58961E-7
6.05000E-2	1.99999E+0	1.26252E-7
6.10000E-2	2.00000E+0	9.90650E-8
6.15000E-2	1.99998E+0	8.42215E-8
6.20000E-2	2.00003E+0	7.53602E-8
6.25000E-2	2.00000E+0	6.38560E-8
6.30000E-2	1.99998E+0	6.19656E-8
6.35000E-2	2.00004E+0	5.64623E-8
6.40000E-2	1.99999E+0	4.89691E-8
6.45000E-2	1.99994E+0	4.99640E-8
6.50000E-2	2.00007E+0	4.45913E-8
6.55000E-2	1.99999E+0	4.31050E-8
6.60000E-2	1.99995E+0	4.30553E-8
6.65000E-2	2.00005E+0	3.71167E-8
6.70000E-2	2.00000E+0	3.74836E-8
6.75000E-2	2.00000E+0	3.83479E-8
6.80000E-2	2.00006E+0	3.37711E-8
6.85000E-2	1.99997E+0	3.47723E-8
6.90000E-2	1.99999E+0	3.39453E-8
6.95000E-2	1.99992E+0	7.94706E-8
7.00000E-2	1.99999E+0	1.54670E-7
7.05000E-2	2.00001E+0	1.19225E-7
7.10000E-2	2.00002E+0	9.36798E-8
7.15000E-2	1.99995E+0	8.39106E-8
7.20000E-2	2.00007E+0	7.19960E-8
7.25000E-2	2.00000E+0	6.62377E-8
7.30000E-2	1.99999E+0	5.87693E-8
7.35000E-2	2.00003E+0	5.75008E-8
7.40000E-2	1.99997E+0	5.04304E-8
7.45000E-2	1.99999E+0	4.96282E-8
7.50000E-2	1.99999E+0	4.79928E-8
7.55000E-2	2.00002E+0	4.09908E-8
7.60000E-2	1.99997E+0	4.27630E-8
7.65000E-2	2.00002E+0	4.09224E-8
7.70000E-2	2.00003E+0	3.55869E-8
7.75000E-2	1.99996E+0	3.84910E-8
7.80000E-2	2.00002E+0	3.78691E-8
7.85000E-2	1.99998E+0	3.26083E-8
7.90000E-2	2.00000E+0	3.51205E-8
7.95000E-2	1.99989E+0	1.29131E-7
8.00000E-2	2.00002E+0	1.36208E-7
8.05000E-2	2.00001E+0	1.08144E-7
8.10000E-2	2.00004E+0	9.18578E-8
8.15000E-2	2.00003E+0	7.64920E-8
8.20000E-2	2.00002E+0	7.10446E-8
8.25000E-2	1.99999E+0	6.55102E-8
8.30000E-2	2.00001E+0	5.63317E-8
8.35000E-2	2.00002E+0	5.55668E-8
8.40000E-2	1.99995E+0	5.16741E-8
8.45000E-2	2.00004E+0	4.81793E-8
8.50000E-2	1.99992E+0	4.58412E-8
8.55000E-2	1.99998E+0	4.50390E-8
8.60000E-2	2.00001E+0	3.96103E-8
8.65000E-2	2.00000E+0	3.98839E-8
8.70000E-2	1.99997E+0	4.19857E-8
8.75000E-2	2.00003E+0	3.43868E-8
8.80000E-2	1.99996E+0	3.71042E-8
8.85000E-2	2.00002E+0	3.57113E-8
8.90000E-2	2.00000E+0	3.94983E-8
8.95000E-2	1.99991E+0	1.62786E-7
9.00000E-2	2.00008E+0	1.23336E-7
9.05000E-2	2.00004E+0	1.01496E-7
9.10000E-2	1.99997E+0	8.55522E-8
9.15000E-2	2.00004E+0	7.71387E-8
9.20000E-2	2.00000E+0	6.85759E-8
9.25000E-2	1.99997E+0	6.29171E-8
9.30000E-2	2.00003E+0	5.76376E-8
9.35000E-2	2.00001E+0	5.21653E-8
9.40000E-2	1.99998E+0	5.12264E-8
9.45000E-2	2.00001E+0	4.94168E-8
9.50000E-2	1.99999E+0	4.29931E-8
9.55000E-2	1.99999E+0	4.26262E-8
9.60000E-2	2.00006E+0	4.42492E-8
9.65000E-2	1.99999E+0	3.91190E-8
9.70000E-2	2.00000E+0	3.70607E-8
9.75000E-2	2.00007E+0	3.96600E-8
9.80000E-2	1.99998E+0	3.39515E-8
9.85000E-2	1.99998E+0	3.67809E-8
9.90000E-2	1.99995E+0	8.89164E-8
9.95000E-2	1.99999E+0	1.44702E-7
1.00000E-1	2.00000E+0	1.16029E-7
1.00500E-1	2.00006E+0	9.38290E-8
1.01000E-1	2.00000E+0	7.99183E-8
1.01500E-1	1.99998E+0	7.39175E-8
1.02000E-1	2.00004E+0	6.46271E-8
1.02500E-1	1.99998E+0	5.99198E-8
1.03000E-1	2.00000E+0	5.95156E-8
1.03500E-1	2.00003E+0	5.11144E-8
1.04000E-1	1.99997E+0	4.98832E-8
1.04500E-1	1.99999E+0	4.75575E-8
1.05000E-1	2.00004E+0	4.22034E-8
1.05500E-1	2.00004E+0	4.30615E-8
1.06000E-1	1.99998E+0	4.22282E-8
1.06500E-1	2.00004E+0	3.92496E-8
1.07000E-1	1.99994E+0	3.82298E-8
1.07500E-1	2.00001E+0	3.93802E-8
1.08000E-1	2.00001E+0	3.34478E-8
1.08500E-1	1.99996E+0	3.74960E-8
1.09000E-1	1.99995E+0	1.33752E-7
1.09500E-1	2.00004E+0	1.31395E-7
1.10000E-1	1.99995E+0	1.08076E-7
1.10500E-1	2.00001E+0	8.83816E-8
1.11000E-1	2.00003E+0	7.87244E-8
1.11500E-1	1.99998E+0	7.11938E-8
1.12000E-1	2.00000E+0	6.24942E-8
1.12500E-1	2.00001E+0	5.86014E-8
1.13000E-1	1.99998E+0	5.41863E-8
1.13500E-1	2.00001E+0	5.41242E-8
1.14000E-1	2.00003E+0	4.69729E-8
1.14500E-1	1.99997E+0	4.79803E-8
1.15000E-1	2.00002E+0	4.29309E-8
1.15500E-1	2.00003E+0	4.38637E-8
1.16000E-1	1.99996E+0	4.07109E-8
1.16500E-1	2.00003E+0	3.81738E-8
1.17000E-1	2.00000E+0	3.99336E-8
1.17500E-1	1.99993E+0	3.55807E-8
1.18000E-1	2.00007E+0	3.61155E-8
1.18500E-1	1.99993E+0	4.53375E-8
1.19000E-1	1.99997E+0	1.59925E-7
1.19500E-1	2.00004E+0	1.19549E-7
1.20000E-1	2.00003E+0	1.00296E-7
1.20500E-1	1.99997E+0	8.38733E-8
1.21000E-1	2.00004E+0	7.46078E-8
1.21500E-1	1.99999E+0	6.77364E-8
1.22000E-1	2.00006E+0	6.12132E-8
1.22500E-1	2.00005E+0	5.71525E-8
1.23000E-1	1.99999E+0	5.50942E-8
1.23500E-1	1.99993E+0	5.10709E-8
1.24000E-1	2.00005E+0	4.71470E-8
1.24500E-1	2.00000E+0	4.52318E-8
1.25000E-1	1.99999E+0	4.59593E-8
1.25500E-1	2.00002E+0	4.06363E-8
1.26000E-1	1.99998E+0	3.98839E-8
1.26500E-1	2.00001E+0	4.01202E-8
1.27000E-1	2.00006E+0	3.75209E-8
1.27500E-1	1.99999E+0	3.48158E-8
1.28000E-1	1.99999E+0	3.65259E-8
1.28500E-1	1.99996E+0	9.49670E-8
1.29000E-1	2.00000E+0	1.43309E-7
1.29500E-1	1.99999E+0	1.15109E-7
1.30000E-1	2.00005E+0	9.36549E-8
1.30500E-1	1.99999E+0	8.00427E-8
1.31000E-1	1.99996E+0	7.37869E-8
1.31500E-1	2.00004E+0	6.33834E-8
1.32000E-1	1.99999E+0	6.01250E-8
1.32500E-1	2.00000E+0	5.67794E-8
1.33000E-1	2.00002E+0	5.24887E-8
1.33500E-1	2.00000E+0	5.11890E-8
1.34000E-1	1.99998E+0	4.76881E-8
1.34500E-1	2.00006E+0	4.43674E-8
1.35000E-1	1.99995E+0	4.19298E-8
1.35500E-1	2.00003E+0	4.18862E-8
1.36000E-1	2.00000E+0	3.89946E-8
1.36500E-1	2.00000E+0	4.02010E-8
1.37000E-1	1.99998E+0	3.83790E-8
1.37500E-1	2.00005E+0	3.53009E-8
1.38000E-1	1.99991E+0	3.76515E-8
1.38500E-1	2.00000E+0	1.37458E-7
1.39000E-1	1.99999E+0	1.28329E-7
1.39500E-1	1.99999E+0	1.04475E-7
1.40000E-1	2.00007E+0	8.64975E-8
1.40500E-1	2.00002E+0	7.90726E-8
1.41000E-1	1.99998E+0	6.83271E-8
1.41500E-1	1.99998E+0	6.68658E-8
1.42000E-1	1.99995E+0	5.66986E-8
1.42500E-1	1.99999E+0	5.71152E-8
1.43000E-1	2.00001E+0	5.09901E-8
1.43500E-1	1.99997E+0	4.73336E-8
1.44000E-1	1.99999E+0	4.74020E-8
1.44500E-1	2.00004E+0	4.40627E-8
1.45000E-1	1.99995E+0	4.12209E-8
1.45500E-1	2.00007E+0	4.01513E-8
1.46000E-1	2.00004E+0	3.88827E-8
1.46500E-1	2.00001E+0	3.75147E-8
1.47000E-1	1.99994E+0	4.05990E-8
1.47500E-1	2.00003E+0	3.49775E-8
1.48000E-1	1.99987E+0	5.42485E-8
1.48500E-1	2.00005E+0	1.55535E-7
1.49000E-1	2.00004E+0	1.16844E-7
1.49500E-1	2.00001E+0	9.78337E-8
1.50000E-1	1.99995E+0	8.64788E-8
1.50500E-1	2.00008E+0	7.26863E-8
1.51000E-1	1.99996E+0	6.71207E-8
1.51500E-1	1.99998E+0	6.27305E-8
1.52000E-1	2.00003E+0	5.83030E-8
1.52500E-1	1.99995E+0	5.23643E-8
1.53000E-1	2.00005E+0	4.94479E-8
1.53500E-1	2.00002E+0	4.91059E-8
1.54000E-1	1.99997E+0	4.40503E-8
1.54500E-1	2.00000E+0	4.51447E-8
1.55000E-1	2.00005E+0	4.24210E-8
1.55500E-1	1.99996E+0	3.91252E-8
1.56000E-1	1.99998E+0	4.24956E-8
1.56500E-1	2.00003E+0	3.53195E-8
1.57000E-1	1.99995E+0	3.84101E-8
1.57500E-1	2.00002E+0	3.55807E-8
1.58000E-1	1.99990E+0	1.01726E-7
1.58500E-1	2.00005E+0	1.39242E-7
1.59000E-1	2.00001E+0	1.12652E-7
1.59500E-1	2.00005E+0	8.93082E-8
1.60000E-1	1.99998E+0	8.07267E-8
1.60500E-1	2.00001E+0	7.35071E-8
1.61000E-1	2.00002E+0	6.28176E-8
1.61500E-1	1.99999E+0	5.95404E-8
1.62000E-1	2.00002E+0	5.81102E-8
1.62500E-1	2.00001E+0	5.26193E-8
1.63000E-1	1.99999E+0	5.00075E-8
1.63500E-1	1.99998E+0	4.84467E-8
1.64000E-1	2.00002E+0	4.45042E-8
1.64500E-1	1.99999E+0	4.49519E-8
1.65000E-1	1.99998E+0	4.25640E-8
1.65500E-1	1.99999E+0	3.83790E-8
1.66000E-1	2.00001E+0	3.83417E-8
1.66500E-1	2.00003E+0	3.80494E-8
1.67000E-1	2.00003E+0	3.71789E-8
1.67500E-1	1.99996E+0	3.77447E-8
1.68000E-1	1.99991E+0	1.42849E-7
1.68500E-1	2.00004E+0	1.26849E-7
1.69000E-1	2.00003E+0	1.03679E-7
1.69500E-1	1.99999E+0	8.82386E-8
1.70000E-1	2.00002E+0	7.43093E-8
1.70500E-1	2.00001E+0	7.00932E-8
1.71000E-1	1.99997E+0	6.49443E-8
1.71500E-1	2.00000E+0	5.73951E-8
1.72000E-1	1.99994E+0	5.58840E-8
1.72500E-1	2.00002E+0	5.18109E-8
1.73000E-1	2.00000E+0	4.96096E-8
1.73500E-1	1.99998E+0	4.48773E-8
1.74000E-1	2.00003E+0	4.61894E-8
1.74500E-1	2.00001E+0	4.04498E-8
1.75000E-1	1.99995E+0	4.29931E-8
1.75500E-1	2.00002E+0	3.98030E-8
1.76000E-1	1.99998E+0	3.63456E-8
1.76500E-1	2.00003E+0	3.80805E-8
1.77000E-1	1.99998E+0	3.64451E-8
1.77500E-1	1.99992E+0	6.43162E-8
1.78000E-1	2.00004E+0	1.52065E-7
1.78500E-1	2.00004E+0	1.17801E-7
1.79000E-1	2.00002E+0	9.63288E-8
1.79500E-1	1.99997E+0	8.44765E-8
1.80000E-1	2.00004E+0	7.48876E-8
1.80500E-1	1.99997E+0	6.62812E-8
1.81000E-1	1.99997E+0	6.24755E-8
1.81500E-1	2.00004E+0	5.76438E-8
1.82000E-1	1.99998E+0	5.42983E-8
1.82500E-1	1.99999E+0	5.00511E-8
1.83000E-1	2.00003E+0	4.74766E-8
1.83500E-1	2.00001E+0	4.70227E-8
1.84000E-1	1.99999E+0	4.44793E-8
1.84500E-1	2.00003E+0	4.30118E-8
1.85000E-1	1.99999E+0	4.03378E-8
1.85500E-1	1.99993E+0	3.92869E-8
1.86000E-1	2.00005E+0	3.79437E-8
1.86500E-1	1.99999E+0	3.64886E-8
1.87000E-1	1.99996E+0	3.79437E-8
1.87500E-1	1.99998E+0	1.10426E-7
1.88000E-1	2.00001E+0	1.38229E-7
1.88500E-1	1.99999E+0	1.10053E-7
1.89000E-1	2.00004E+0	8.96005E-8
1.89500E-1	2.00000E+0	8.10376E-8
1.90000E-1	1.99999E+0	7.24251E-8
1.90500E-1	2.00004E+0	6.40364E-8
1.91000E-1	1.99998E+0	6.10888E-8
1.91500E-1	1.99999E+0	5.54673E-8
1.92000E-1	2.00004E+0	5.42921E-8
1.92500E-1	1.99998E+0	4.72901E-8
1.93000E-1	2.00001E+0	4.97775E-8
1.93500E-1	2.00003E+0	4.44234E-8
1.94000E-1	1.99997E+0	4.30242E-8
1.94500E-1	2.00003E+0	4.24459E-8
1.95000E-1	2.00002E+0	3.94921E-8
1.95500E-1	2.00000E+0	3.86402E-8
1.96000E-1	2.00000E+0	3.93367E-8
1.96500E-1	2.00004E+0	3.59103E-8
1.97000E-1	1.99994E+0	3.92931E-8
1.97500E-1	1.99993E+0	1.47426E-7
1.98000E-1	2.00008E+0	1.24965E-7
1.98500E-1	2.00001E+0	1.00097E-7
1.99000E-1	1.99998E+0	8.69452E-8
1.99500E-1	2.00009E+0	7.54037E-8
2.00000E-1	2.00000E+0	7.05036E-8
2.00500E-1	1.99992E+0	6.43597E-8
2.01000E-1	2.00007E+0	5.80604E-8
2.01500E-1	1.99997E+0	5.54549E-8
2.02000E-1	1.99998E+0	5.09403E-8
2.02500E-1	2.00007E+0	4.84467E-8
2.03000E-1	2.00003E+0	4.66434E-8
2.03500E-1	1.99996E+0	4.55178E-8
2.04000E-1	2.00004E+0	4.47529E-8
2.04500E-1	1.99999E+0	3.97346E-8
2.05000E-1	1.99999E+0	4.11462E-8
2.05500E-1	2.00003E+0	4.00269E-8
2.06000E-1	1.99998E+0	3.73468E-8
2.06500E-1	1.99997E+0	3.72037E-8
2.07000E-1	1.99991E+0	7.19027E-8
2.07500E-1	2.00003E+0	1.47911E-7
2.08000E-1	2.00003E+0	1.15469E-7
2.08500E-1	2.00002E+0	9.52655E-8
2.09000E-1	2.00001E+0	8.41593E-8
2.09500E-1	1.99997E+0	7.36004E-8
2.10000E-1	2.00003E+0	6.60636E-8
2.10500E-1	1.99999E+0	6.28549E-8
2.11000E-1	1.99997E+0	5.90305E-8
2.11500E-1	2.00002E+0	5.23084E-8
2.12000E-1	1.99996E+0	5.25882E-8
2.12500E-1	2.00003E+0	4.65501E-8
2.13000E-1	2.00002E+0	4.77254E-8
2.13500E-1	1.99996E+0	4.38388E-8
2.14000E-1	1.99999E+0	4.23153E-8
2.14500E-1	2.00004E+0	3.95667E-8
2.15000E-1	1.99996E+0	3.96414E-8
2.15500E-1	2.00000E+0	4.01886E-8
2.16000E-1	2.00003E+0	3.43743E-8
2.16500E-1	1.99995E+0	3.75520E-8
2.17000E-1	1.99997E+0	1.18498E-7
2.17500E-1	2.00002E+0	1.34380E-7
2.18000E-1	2.00000E+0	1.07640E-7
2.18500E-1	2.00003E+0	9.01228E-8
2.19000E-1	2.00003E+0	7.87057E-8
2.19500E-1	1.99998E+0	7.12374E-8
2.20000E-1	2.00001E+0	6.50935E-8
2.20500E-1	2.00002E+0	5.93166E-8
2.21000E-1	1.99995E+0	5.79236E-8
2.21500E-1	2.00003E+0	5.28432E-8
2.22000E-1	2.00000E+0	4.77005E-8
2.22500E-1	1.99999E+0	4.87638E-8
2.23000E-1	1.99999E+0	4.78249E-8
2.23500E-1	1.99999E+0	4.25889E-8
2.24000E-1	2.00000E+0	4.22593E-8
2.24500E-1	2.00002E+0	3.91625E-8
2.25000E-1	1.99998E+0	3.97595E-8
2.25500E-1	2.00000E+0	3.85531E-8
2.26000E-1	2.00002E+0	3.82547E-8
2.26500E-1	1.99999E+0	3.88019E-8
2.27000E-1	1.99996E+0	1.51518E-7
2.27500E-1	2.00006E+0	1.25562E-7
2.28000E-1	1.99999E+0	1.01608E-7
2.28500E-1	1.99998E+0	8.74675E-8
2.29000E-1	2.00005E+0	7.64857E-8
2.29500E-1	1.99999E+0	6.62999E-8
2.30000E-1	2.00000E+0	6.33834E-8
2.30500E-1	2.00004E+0	5.99944E-8
2.31000E-1	1.99996E+0	5.39003E-8
2.31500E-1	1.99999E+0	5.23457E-8
2.32000E-1	2.00003E+0	4.86892E-8
2.32500E-1	2.00001E+0	4.66434E-8
2.33000E-1	1.99995E+0	4.61583E-8
2.33500E-1	2.00010E+0	4.18862E-8
2.34000E-1	1.99996E+0	4.15069E-8
2.34500E-1	1.99999E+0	4.17681E-8
2.35000E-1	2.00002E+0	3.73157E-8
2.35500E-1	2.00001E+0	3.90568E-8
2.36000E-1	2.00000E+0	3.55558E-8
2.36500E-1	1.99994E+0	8.19766E-8
2.37000E-1	2.00003E+0	1.45218E-7
2.37500E-1	2.00005E+0	1.12565E-7
2.38000E-1	2.00002E+0	9.71124E-8
2.38500E-1	2.00000E+0	8.19642E-8
2.39000E-1	1.99998E+0	7.25308E-8
2.39500E-1	2.00004E+0	6.85759E-8
2.40000E-1	1.99997E+0	6.00255E-8
2.40500E-1	1.99995E+0	5.85455E-8
2.41000E-1	2.00006E+0	5.37635E-8
2.41500E-1	1.99998E+0	4.90561E-8
2.42000E-1	1.99996E+0	5.13134E-8
2.42500E-1	2.00003E+0	4.51198E-8
2.43000E-1	2.00000E+0	4.25019E-8
2.43500E-1	1.99998E+0	4.51696E-8
2.44000E-1	2.00006E+0	3.91004E-8
2.44500E-1	1.99999E+0	3.90817E-8
2.45000E-1	1.99996E+0	3.95605E-8
2.45500E-1	2.00009E+0	3.80494E-8
2.46000E-1	1.99995E+0	3.54315E-8
2.46500E-1	1.99993E+0	1.25767E-7
2.47000E-1	2.00005E+0	1.32987E-7
2.47500E-1	1.99999E+0	1.06017E-7
2.48000E-1	1.99998E+0	9.13541E-8
2.48500E-1	2.00003E+0	7.92592E-8
2.49000E-1	1.99999E+0	6.81965E-8
2.49500E-1	2.00000E+0	6.52179E-8
2.50000E-1	2.00009E+0	6.08401E-8
2.50500E-1	1.99998E+0	5.48331E-8
2.51000E-1	2.00001E+0	5.42485E-8
2.51500E-1	2.00005E+0	4.79679E-8
2.52000E-1	1.99998E+0	4.78497E-8
2.52500E-1	2.00002E+0	4.64008E-8
2.53000E-1	2.00000E+0	4.26200E-8
2.53500E-1	1.99998E+0	4.19173E-8
2.54000E-1	2.00003E+0	4.24024E-8
2.54500E-1	1.99998E+0	4.02632E-8
2.55000E-1	1.99996E+0	3.63456E-8
2.55500E-1	2.00003E+0	3.71415E-8
2.56000E-1	1.99998E+0	4.43425E-8
2.56500E-1	1.99995E+0	1.54664E-7
2.57000E-1	2.00003E+0	1.21706E-7
2.57500E-1	2.00004E+0	9.87105E-8
2.58000E-1	1.99997E+0	8.45511E-8
2.58500E-1	2.00002E+0	7.77605E-8
2.59000E-1	1.99999E+0	6.91293E-8
2.59500E-1	1.99995E+0	6.19967E-8
2.60000E-1	1.99998E+0	6.01250E-8
2.60500E-1	2.00003E+0	5.53368E-8
2.61000E-1	1.99998E+0	5.16243E-8
2.61500E-1	2.00002E+0	4.88260E-8
2.62000E-1	2.00002E+0	4.62018E-8
2.62500E-1	2.00001E+0	4.64941E-8
2.63000E-1	1.99998E+0	4.41933E-8
2.63500E-1	2.00001E+0	4.25019E-8
2.64000E-1	1.99998E+0	3.92309E-8
2.64500E-1	1.99999E+0	3.95667E-8
2.65000E-1	2.00003E+0	3.84288E-8
2.65500E-1	1.99998E+0	3.68617E-8
2.66000E-1	1.99988E+0	8.95072E-8
2.66500E-1	2.00003E+0	1.41276E-7
2.67000E-1	1.99996E+0	1.11290E-7
2.67500E-1	2.00006E+0	9.40715E-8
2.68000E-1	2.00000E+0	8.26420E-8
2.68500E-1	1.99993E+0	7.33143E-8
2.69000E-1	2.00004E+0	6.60512E-8
2.69500E-1	2.00004E+0	6.04421E-8
2.70000E-1	2.00001E+0	5.79672E-8
2.70500E-1	2.00000E+0	5.58405E-8
2.71000E-1	1.99997E+0	4.93235E-8
2.71500E-1	1.99998E+0	4.89877E-8
2.72000E-1	2.00001E+0	4.70351E-8
2.72500E-1	2.00003E+0	4.35466E-8
2.73000E-1	1.99997E+0	4.14634E-8
2.73500E-1	1.99996E+0	4.41746E-8
2.74000E-1	2.00003E+0	3.87210E-8
2.74500E-1	2.00001E+0	3.75084E-8
2.75000E-1	2.00001E+0	3.80432E-8
2.75500E-1	2.00001E+0	3.95170E-8
2.76000E-1	1.99988E+0	1.30468E-7
2.76500E-1	2.00003E+0	1.31283E-7
2.77000E-1	2.00007E+0	1.03922E-7
2.77500E-1	1.99994E+0	8.97497E-8
2.78000E-1	2.00001E+0	8.08449E-8
2.78500E-1	2.00003E+0	7.03232E-8
2.79000E-1	1.99996E+0	6.35762E-8
2.79500E-1	2.00003E+0	6.11261E-8
2.80000E-1	2.00000E+0	5.52373E-8
2.80500E-1	2.00002E+0	5.27499E-8
2.81000E-1	2.00004E+0	5.11953E-8
2.81500E-1	2.00002E+0	4.76507E-8
2.82000E-1	1.99998E+0	4.57603E-8
2.82500E-1	2.00002E+0	4.67926E-8
2.83000E-1	2.00004E+0	4.03254E-8
2.83500E-1	1.99998E+0	4.17494E-8
2.84000E-1	2.00000E+0	4.21536E-8
2.84500E-1	2.00004E+0	3.77572E-8
2.85000E-1	1.99997E+0	3.55434E-8
2.85500E-1	1.99990E+0	5.39314E-8
2.86000E-1	2.00004E+0	1.49808E-7
2.86500E-1	2.00002E+0	1.20413E-7
2.87000E-1	2.00003E+0	9.68014E-8
2.87500E-1	2.00003E+0	8.68084E-8
2.88000E-1	1.99996E+0	7.58888E-8
2.88500E-1	1.99997E+0	6.92910E-8
2.89000E-1	2.00002E+0	6.22268E-8
2.89500E-1	2.00001E+0	5.82532E-8
2.90000E-1	2.00001E+0	5.51129E-8
2.90500E-1	2.00000E+0	5.26193E-8
2.91000E-1	1.99999E+0	4.76445E-8
2.91500E-1	2.00003E+0	4.80612E-8
2.92000E-1	1.99999E+0	4.42617E-8
2.92500E-1	1.99999E+0	4.33351E-8
2.93000E-1	2.00004E+0	4.39694E-8
2.93500E-1	2.00002E+0	3.82733E-8
2.94000E-1	1.99998E+0	4.07109E-8
2.94500E-1	2.00001E+0	3.81925E-8
2.95000E-1	2.00000E+0	3.78442E-8
2.95500E-1	1.99985E+0	9.85364E-8
2.96000E-1	2.00005E+0	1.37408E-7
2.96500E-1	2.00008E+0	1.11919E-7
2.97000E-1	2.00000E+0	9.30331E-8
2.97500E-1	2.00000E+0	8.12864E-8
2.98000E-1	2.00004E+0	7.29847E-8
2.98500E-1	1.99992E+0	6.73073E-8
2.99000E-1	2.00007E+0	6.06287E-8
2.99500E-1	1.99999E+0	5.69971E-8
3.00000E-1	1.99997E+0	5.48206E-8
3.00500E-1	2.00006E+0	5.14253E-8
3.01000E-1	1.99998E+0	4.75575E-8
3.01500E-1	1.99995E+0	4.77191E-8
3.02000E-1	2.00006E+0	4.48960E-8
3.02500E-1	1.99999E+0	4.21474E-8
3.03000E-1	1.99994E+0	4.28377E-8
3.03500E-1	2.00003E+0	3.72224E-8
3.04000E-1	2.00001E+0	3.87273E-8
3.04500E-1	1.99996E+0	4.01637E-8
3.05000E-1	2.00004E+0	3.75022E-8
3.05500E-1	1.99991E+0	1.34691E-7
3.06000E-1	1.99999E+0	1.30543E-7
3.06500E-1	2.00007E+0	1.03250E-7
3.07000E-1	2.00003E+0	8.76603E-8
3.07500E-1	1.99997E+0	7.91037E-8
3.08000E-1	2.00003E+0	6.90236E-8
3.08500E-1	2.00000E+0	6.61196E-8
3.09000E-1	2.00001E+0	5.91176E-8
3.09500E-1	2.00003E+0	5.53181E-8
3.10000E-1	1.99994E+0	5.42423E-8
3.10500E-1	2.00004E+0	5.09030E-8
3.11000E-1	2.00002E+0	4.52629E-8
3.11500E-1	1.99996E+0	4.62578E-8
3.12000E-1	2.00005E+0	4.39570E-8
3.12500E-1	2.00000E+0	4.22220E-8
3.13000E-1	1.99996E+0	4.27941E-8
3.13500E-1	2.00003E+0	4.07109E-8
3.14000E-1	2.00001E+0	3.59165E-8
3.14500E-1	1.99999E+0	3.91439E-8
3.15000E-1	1.99991E+0	5.80293E-8
3.15500E-1	1.99999E+0	1.50025E-7
3.16000E-1	2.00001E+0	1.19723E-7
3.16500E-1	2.00004E+0	9.72119E-8
3.17000E-1	1.99999E+0	8.42091E-8
3.17500E-1	1.99999E+0	7.51488E-8
3.18000E-1	2.00005E+0	6.90485E-8
3.18500E-1	1.99999E+0	6.25999E-8
3.19000E-1	1.99996E+0	5.97643E-8
3.19500E-1	2.00004E+0	5.43667E-8
3.20000E-1	2.00000E+0	5.21156E-8
3.20500E-1	2.00001E+0	4.77005E-8
3.21000E-1	2.00003E+0	4.90561E-8
3.21500E-1	1.99998E+0	4.37269E-8
3.22000E-1	1.99996E+0	4.44109E-8
3.22500E-1	2.00006E+0	4.17681E-8
3.23000E-1	1.99997E+0	4.07358E-8
3.23500E-1	1.99997E+0	4.22780E-8
3.24000E-1	2.00002E+0	3.80183E-8
3.24500E-1	1.99995E+0	3.64700E-8
3.25000E-1	1.99992E+0	1.06160E-7
3.25500E-1	2.00005E+0	1.36233E-7
3.26000E-1	2.00002E+0	1.09301E-7
3.26500E-1	2.00000E+0	9.35554E-8
3.27000E-1	2.00006E+0	8.13175E-8
3.27500E-1	1.99994E+0	7.31526E-8
3.28000E-1	2.00003E+0	6.67228E-8
3.28500E-1	2.00002E+0	6.14246E-8
3.29000E-1	1.99998E+0	5.75941E-8
3.29500E-1	2.00003E+0	5.52310E-8
3.30000E-1	1.99999E+0	5.10336E-8
3.30500E-1	1.99997E+0	4.89442E-8
3.31000E-1	2.00005E+0	4.58225E-8
3.31500E-1	2.00002E+0	4.44358E-8
3.32000E-1	1.99997E+0	4.51447E-8
3.32500E-1	2.00005E+0	4.17370E-8
3.33000E-1	1.99998E+0	3.87397E-8
3.33500E-1	2.00002E+0	4.05804E-8
3.34000E-1	2.00003E+0	3.74525E-8
3.34500E-1	1.99995E+0	3.89760E-8
3.35000E-1	1.99995E+0	1.44584E-7
3.35500E-1	2.00005E+0	1.24505E-7
3.36000E-1	2.00002E+0	1.03723E-7
3.36500E-1	2.00000E+0	9.00793E-8
3.37000E-1	2.00003E+0	7.75553E-8
3.37500E-1	1.99999E+0	7.05658E-8
3.38000E-1	2.00002E+0	6.38498E-8
3.38500E-1	2.00000E+0	5.95591E-8
3.39000E-1	1.99996E+0	5.67235E-8
3.39500E-1	1.99997E+0	5.33717E-8
3.40000E-1	2.00005E+0	5.00013E-8
3.40500E-1	2.00000E+0	4.81544E-8
3.41000E-1	2.00004E+0	4.67242E-8
3.41500E-1	1.99999E+0	4.34471E-8
3.42000E-1	2.00002E+0	4.22656E-8
3.42500E-1	2.00000E+0	4.28377E-8
3.43000E-1	2.00005E+0	3.83293E-8
3.43500E-1	2.00000E+0	3.84972E-8
3.44000E-1	1.99998E+0	3.97222E-8
3.44500E-1	1.99991E+0	6.62066E-8
3.45000E-1	2.00004E+0	1.46966E-7
3.45500E-1	2.00003E+0	1.17540E-7
3.46000E-1	2.00009E+0	9.74357E-8
3.46500E-1	1.99996E+0	8.41469E-8
3.47000E-1	2.00001E+0	7.47508E-8
3.47500E-1	2.00004E+0	6.84701E-8
3.48000E-1	1.99996E+0	6.37690E-8
3.48500E-1	1.99999E+0	5.95840E-8
3.49000E-1	1.99998E+0	5.55793E-8
3.49500E-1	2.00000E+0	5.18295E-8
3.50000E-1	1.99999E+0	4.97650E-8
3.50500E-1	2.00004E+0	4.81482E-8
3.51000E-1	1.99998E+0	4.53064E-8
3.51500E-1	1.99999E+0	4.31859E-8
3.52000E-1	2.00003E+0	4.16686E-8
3.52500E-1	1.99995E+0	4.19111E-8
3.53000E-1	2.00001E+0	4.06114E-8
3.53500E-1	2.00002E+0	3.71789E-8
3.54000E-1	1.99997E+0	3.68866E-8
3.54500E-1	1.99992E+0	1.13927E-7
3.55000E-1	2.00003E+0	1.33938E-7
3.55500E-1	1.99999E+0	1.08903E-7
3.56000E-1	2.00003E+0	9.22060E-8
3.56500E-1	2.00004E+0	7.94519E-8
3.57000E-1	1.99996E+0	7.31029E-8
3.57500E-1	1.99999E+0	6.58895E-8
3.58000E-1	2.00005E+0	6.17356E-8
3.58500E-1	1.99995E+0	5.79299E-8
3.59000E-1	2.00006E+0	5.30297E-8
3.59500E-1	1.99996E+0	5.21405E-8
3.60000E-1	1.99999E+0	4.96717E-8
3.60500E-1	2.00002E+0	4.58350E-8
3.61000E-1	1.99996E+0	4.47156E-8
3.61500E-1	1.99998E+0	4.48462E-8
3.62000E-1	2.00006E+0	4.00269E-8
3.62500E-1	1.99995E+0	4.03938E-8
3.63000E-1	2.00002E+0	4.05244E-8
3.63500E-1	2.00004E+0	3.71851E-8
3.64000E-1	1.99997E+0	3.91004E-8
3.64500E-1	1.99997E+0	1.49888E-7
3.65000E-1	2.00004E+0	1.23280E-7
3.65500E-1	1.99998E+0	1.00620E-7
3.66000E-1	2.00005E+0	8.94885E-8
3.66500E-1	1.99998E+0	7.77854E-8
3.67000E-1	2.00000E+0	7.22323E-8
3.67500E-1	2.00005E+0	6.43224E-8
3.68000E-1	1.99996E+0	5.84149E-8
3.68500E-1	2.00002E+0	5.63628E-8
3.69000E-1	2.00006E+0	5.17922E-8
3.69500E-1	1.99993E+0	5.17798E-8
3.70000E-1	2.00004E+0	4.69107E-8
3.70500E-1	2.00004E+0	4.61459E-8
3.71000E-1	1.99998E+0	4.64008E-8
3.71500E-1	1.99999E+0	4.37829E-8
3.72000E-1	2.00004E+0	3.86713E-8
3.72500E-1	1.99998E+0	4.03565E-8
3.73000E-1	2.00003E+0	3.89511E-8
3.73500E-1	2.00004E+0	3.90320E-8
3.74000E-1	1.99989E+0	7.57706E-8
3.74500E-1	1.99999E+0	1.45579E-7
3.75000E-1	2.00007E+0	1.14449E-7
3.75500E-1	2.00002E+0	9.54645E-8
3.76000E-1	1.99996E+0	8.53968E-8
3.76500E-1	2.00003E+0	7.40543E-8
3.77000E-1	1.99996E+0	6.79851E-8
3.77500E-1	2.00003E+0	6.49691E-8
3.78000E-1	2.00002E+0	5.68976E-8
3.78500E-1	1.99995E+0	5.53305E-8
3.79000E-1	2.00001E+0	5.30235E-8
3.79500E-1	2.00003E+0	4.92924E-8
3.80000E-1	1.99999E+0	4.91867E-8
3.80500E-1	2.00002E+0	4.64133E-8
3.81000E-1	2.00001E+0	4.24335E-8
3.81500E-1	1.99996E+0	4.29309E-8
3.82000E-1	2.00004E+0	4.09721E-8
3.82500E-1	2.00001E+0	4.11960E-8
3.83000E-1	1.99999E+0	3.80308E-8
3.83500E-1	2.00000E+0	3.94113E-8
3.84000E-1	1.99992E+0	1.16010E-7
3.84500E-1	2.00003E+0	1.33832E-7
3.85000E-1	2.00004E+0	1.09033E-7
3.85500E-1	1.99996E+0	9.14225E-8
3.86000E-1	2.00003E+0	8.04345E-8
3.86500E-1	2.00008E+0	7.25184E-8
3.87000E-1	1.99994E+0	6.63994E-8
3.87500E-1	1.99995E+0	6.40799E-8
3.88000E-1	2.00005E+0	5.52870E-8
3.88500E-1	1.99999E+0	5.51689E-8
3.89000E-1	1.99998E+0	5.12699E-8
3.89500E-1	2.00002E+0	4.98334E-8
3.90000E-1	1.99996E+0	4.56360E-8
3.90500E-1	2.00001E+0	4.51820E-8
3.91000E-1	2.00004E+0	4.22158E-8
3.91500E-1	1.99997E+0	4.16686E-8
3.92000E-1	2.00000E+0	4.26138E-8
3.92500E-1	2.00002E+0	3.65881E-8
3.93000E-1	1.99997E+0	3.95294E-8
3.93500E-1	1.99995E+0	4.54681E-8
3.94000E-1	1.99996E+0	1.47917E-7
3.94500E-1	2.00001E+0	1.22658E-7
3.95000E-1	2.00000E+0	1.02255E-7
3.95500E-1	2.00001E+0	8.73432E-8
3.96000E-1	2.00002E+0	7.59883E-8
3.96500E-1	1.99999E+0	7.33205E-8
3.97000E-1	2.00003E+0	6.37690E-8
3.97500E-1	1.99995E+0	6.02680E-8
3.98000E-1	1.99999E+0	5.75443E-8
3.98500E-1	2.00000E+0	5.27188E-8
3.99000E-1	1.99999E+0	4.85835E-8
3.99500E-1	2.00006E+0	4.94914E-8
4.00000E-1	1.99998E+0	4.74082E-8
4.00500E-1	2.00001E+0	4.42057E-8
4.01000E-1	1.99992E+0	4.49768E-8
4.01500E-1	2.00005E+0	4.01140E-8
4.02000E-1	1.99996E+0	4.01513E-8
4.02500E-1	2.00006E+0	3.86713E-8
4.03000E-1	1.99999E+0	3.71975E-8
4.03500E-1	1.99988E+0	8.47003E-8
4.04000E-1	2.00008E+0	1.43919E-7
4.04500E-1	1.99998E+0	1.13902E-7
4.05000E-1	2.00001E+0	9.67268E-8
4.05500E-1	2.00003E+0	8.35064E-8
4.06000E-1	1.99995E+0	7.52545E-8
4.06500E-1	1.99998E+0	6.91853E-8
4.07000E-1	2.00004E+0	6.01996E-8
4.07500E-1	1.99998E+0	6.05540E-8
4.08000E-1	2.00004E+0	5.35023E-8
4.08500E-1	2.00002E+0	5.40620E-8
4.09000E-1	1.99997E+0	4.78684E-8
4.09500E-1	2.00000E+0	4.92862E-8
4.10000E-1	2.00001E+0	4.67491E-8
4.10500E-1	1.99995E+0	4.36336E-8
4.11000E-1	2.00008E+0	4.11960E-8
4.11500E-1	1.99998E+0	4.24210E-8
4.12000E-1	1.99995E+0	3.96103E-8
4.12500E-1	2.00006E+0	3.70234E-8
4.13000E-1	1.99999E+0	3.95108E-8
4.13500E-1	1.99988E+0	1.24219E-7
4.14000E-1	2.00008E+0	1.30406E-7
4.14500E-1	1.99999E+0	1.07460E-7
4.15000E-1	1.99997E+0	9.06016E-8
4.15500E-1	2.00004E+0	8.09382E-8
4.16000E-1	1.99997E+0	6.96143E-8
4.16500E-1	2.00001E+0	6.76742E-8
4.17000E-1	2.00005E+0	6.01498E-8
4.17500E-1	1.99998E+0	5.79920E-8
4.18000E-1	1.99996E+0	5.36267E-8
4.18500E-1	2.00005E+0	5.16741E-8
4.19000E-1	1.99997E+0	4.97028E-8
4.19500E-1	2.00001E+0	4.55738E-8
4.20000E-1	2.00004E+0	4.61832E-8
4.20500E-1	1.99996E+0	4.32108E-8
4.21000E-1	1.99999E+0	4.24459E-8
4.21500E-1	2.00003E+0	3.87770E-8
4.22000E-1	1.99997E+0	4.16002E-8
4.22500E-1	1.99998E+0	3.89822E-8
4.23000E-1	1.99996E+0	4.47156E-8
4.23500E-1	1.99999E+0	1.54098E-7
4.24000E-1	2.00005E+0	1.20674E-7
4.24500E-1	2.00004E+0	9.97303E-8
4.25000E-1	1.99995E+0	8.84687E-8
4.25500E-1	2.00004E+0	7.70765E-8
4.26000E-1	2.00000E+0	6.75125E-8
4.26500E-1	1.99998E+0	6.56097E-8
4.27000E-1	2.00004E+0	5.93850E-8
4.27500E-1	1.99998E+0	5.61949E-8
4.28000E-1	1.99997E+0	5.39563E-8
4.28500E-1	2.00004E+0	5.05423E-8
4.29000E-1	1.99997E+0	4.79617E-8
4.29500E-1	2.00002E+0	4.46348E-8
4.30000E-1	2.00007E+0	4.44234E-8
4.30500E-1	1.99995E+0	4.30864E-8
4.31000E-1	2.00003E+0	4.12146E-8
4.31500E-1	2.00003E+0	4.01699E-8
4.32000E-1	1.99993E+0	4.01824E-8
4.32500E-1	2.00003E+0	3.66130E-8
4.33000E-1	1.99993E+0	9.36425E-8
4.33500E-1	1.99995E+0	1.40312E-7
4.34000E-1	2.00007E+0	1.13311E-7
4.34500E-1	2.00001E+0	9.47431E-8
4.35000E-1	1.99998E+0	8.15724E-8
4.35500E-1	2.00001E+0	7.69148E-8
4.36000E-1	1.99997E+0	6.73757E-8
4.36500E-1	1.99994E+0	6.38250E-8
4.37000E-1	2.00003E+0	5.83465E-8
4.37500E-1	2.00001E+0	5.27996E-8
4.38000E-1	2.00001E+0	5.31603E-8
4.38500E-1	2.00007E+0	4.97339E-8
4.39000E-1	1.99999E+0	4.85711E-8
4.39500E-1	1.99997E+0	4.66620E-8
4.40000E-1	2.00003E+0	4.41684E-8
4.40500E-1	1.99998E+0	4.32170E-8
4.41000E-1	1.99995E+0	4.25454E-8
4.41500E-1	2.00004E+0	3.83044E-8
4.42000E-1	1.99997E+0	3.89822E-8
4.42500E-1	1.99996E+0	4.07545E-8
4.43000E-1	1.99998E+0	1.30170E-7
4.43500E-1	2.00000E+0	1.30151E-7
4.44000E-1	2.00003E+0	1.04917E-7
4.44500E-1	2.00005E+0	8.93144E-8
4.45000E-1	2.00001E+0	7.91286E-8
4.45500E-1	1.99999E+0	7.47135E-8
4.46000E-1	2.00005E+0	6.56656E-8
4.46500E-1	1.99999E+0	6.09147E-8
4.47000E-1	1.99993E+0	5.96524E-8
4.47500E-1	2.00005E+0	5.34712E-8
4.48000E-1	1.99996E+0	4.97712E-8
4.48500E-1	1.99997E+0	5.14502E-8
4.49000E-1	2.00005E+0	4.63324E-8
4.49500E-1	1.99998E+0	4.44482E-8
4.50000E-1	1.99999E+0	4.44793E-8
4.50500E-1	2.00006E+0	3.93864E-8
4.51000E-1	1.99998E+0	4.23526E-8
4.51500E-1	1.99997E+0	4.12333E-8
4.52000E-1	2.00004E+0	3.61590E-8
4.52500E-1	1.99990E+0	5.35645E-8
4.53000E-1	1.99999E+0	1.51518E-7
4.53500E-1	2.00010E+0	1.19573E-7
4.54000E-1	2.00000E+0	9.75477E-8
4.54500E-1	2.00005E+0	8.73680E-8
4.55000E-1	2.00001E+0	7.53478E-8
4.55500E-1	1.99994E+0	7.21701E-8
4.56000E-1	2.00001E+0	6.22579E-8
4.56500E-1	2.00001E+0	6.05292E-8
4.57000E-1	1.99999E+0	5.54176E-8
4.57500E-1	2.00003E+0	5.34899E-8
4.58000E-1	2.00002E+0	4.91245E-8
4.58500E-1	1.99997E+0	5.00884E-8
4.59000E-1	2.00003E+0	4.43923E-8
4.59500E-1	2.00001E+0	4.53126E-8
4.60000E-1	1.99997E+0	4.26200E-8
4.60500E-1	2.00004E+0	4.10654E-8
4.61000E-1	1.99997E+0	3.98963E-8
4.61500E-1	2.00001E+0	3.90133E-8
4.62000E-1	2.00001E+0	4.03192E-8
4.62500E-1	1.99991E+0	9.86981E-8
4.63000E-1	1.99998E+0	1.39367E-7
4.63500E-1	2.00003E+0	1.09344E-7
4.64000E-1	2.00002E+0	9.58500E-8
4.64500E-1	1.99997E+0	8.20450E-8
4.65000E-1	2.00004E+0	7.52669E-8
4.65500E-1	2.00002E+0	6.66046E-8
4.66000E-1	1.99995E+0	6.19905E-8
4.66500E-1	2.00000E+0	6.07779E-8
4.67000E-1	1.99999E+0	5.27001E-8
4.67500E-1	2.00000E+0	5.15062E-8
4.68000E-1	2.00000E+0	5.07413E-8
4.68500E-1	1.99997E+0	4.78186E-8
4.69000E-1	2.00001E+0	4.68299E-8
4.69500E-1	2.00004E+0	4.38264E-8
4.70000E-1	1.99995E+0	4.24708E-8
4.70500E-1	1.99999E+0	4.26760E-8
4.71000E-1	2.00002E+0	3.91501E-8
4.71500E-1	1.99999E+0	3.76763E-8
4.72000E-1	1.99997E+0	3.98155E-8
4.72500E-1	1.99999E+0	1.37626E-7
4.73000E-1	1.99996E+0	1.26861E-7
4.73500E-1	2.00003E+0	1.05905E-7
4.74000E-1	2.00004E+0	8.92771E-8
4.74500E-1	1.99997E+0	7.93711E-8
4.75000E-1	1.99996E+0	7.35133E-8
4.75500E-1	2.00003E+0	6.36446E-8
4.76000E-1	1.99993E+0	6.22890E-8
4.76500E-1	2.00006E+0	5.82967E-8
4.77000E-1	2.00001E+0	5.36018E-8
4.77500E-1	1.99997E+0	5.05859E-8
4.78000E-1	1.99998E+0	5.15870E-8
4.78500E-1	2.00002E+0	4.49395E-8
4.79000E-1	2.00001E+0	4.53934E-8
4.79500E-1	2.00003E+0	4.53934E-8
4.80000E-1	1.99998E+0	4.11027E-8
4.80500E-1	1.99997E+0	4.11089E-8
4.81000E-1	2.00004E+0	3.88703E-8
4.81500E-1	1.99999E+0	3.93864E-8
4.82000E-1	1.99988E+0	6.20216E-8
4.82500E-1	2.00005E+0	1.50896E-7
4.83000E-1	2.00000E+0	1.16085E-7
4.83500E-1	2.00003E+0	9.98360E-8
4.84000E-1	2.00001E+0	8.66778E-8
4.84500E-1	2.00000E+0	7.68837E-8
4.85000E-1	2.00001E+0	6.88308E-8
4.85500E-1	2.00004E+0	6.56656E-8
4.86000E-1	1.99999E+0	5.94036E-8
4.86500E-1	1.99993E+0	5.75443E-8
4.87000E-1	2.00004E+0	5.30608E-8
4.87500E-1	2.00000E+0	4.99143E-8
4.88000E-1	2.00003E+0	4.82104E-8
4.88500E-1	2.00001E+0	4.74642E-8
4.89000E-1	1.99998E+0	4.23277E-8
4.89500E-1	2.00004E+0	4.33103E-8
4.90000E-1	2.00005E+0	4.32356E-8
4.90500E-1	1.99995E+0	4.06674E-8
4.91000E-1	1.99996E+0	4.17246E-8
4.91500E-1	2.00003E+0	3.67249E-8
4.92000E-1	1.99987E+0	1.06819E-7
4.92500E-1	2.00002E+0	1.36935E-7
4.93000E-1	2.00002E+0	1.08548E-7
4.93500E-1	1.99999E+0	9.51971E-8
4.94000E-1	2.00002E+0	8.16657E-8
4.94500E-1	2.00003E+0	7.30718E-8
4.95000E-1	1.99999E+0	6.86629E-8
4.95500E-1	1.99998E+0	6.29855E-8
4.96000E-1	2.00006E+0	5.78988E-8
4.96500E-1	1.99997E+0	5.31230E-8
4.97000E-1	2.00001E+0	5.53678E-8
4.97500E-1	2.00002E+0	4.68112E-8
4.98000E-1	2.00000E+0	4.88447E-8
4.98500E-1	2.00003E+0	4.38699E-8
4.99000E-1	2.00005E+0	4.61210E-8
4.99500E-1	1.99993E+0	4.37891E-8
5.00000E-1	2.00001E+0	4.17619E-8
5.00500E-1	2.00001E+0	3.94113E-8
5.01000E-1	1.99997E+0	3.73032E-8
5.01500E-1	2.00002E+0	4.20790E-8
5.02000E-1	1.99993E+0	1.43894E-7
5.02500E-1	2.00002E+0	1.25469E-7
5.03000E-1	2.00000E+0	1.05383E-7
5.03500E-1	2.00002E+0	8.69017E-8
5.04000E-1	2.00003E+0	7.99121E-8
5.04500E-1	2.00000E+0	7.32210E-8
5.05000E-1	2.00001E+0	6.35265E-8
5.05500E-1	1.99999E+0	6.19408E-8
5.06000E-1	1.99997E+0	5.87942E-8
5.06500E-1	2.00003E+0	5.30981E-8
5.07000E-1	2.00002E+0	5.12885E-8
5.07500E-1	2.00000E+0	5.06169E-8
5.08000E-1	2.00001E+0	4.70849E-8
5.08500E-1	1.99999E+0	4.52753E-8
5.09000E-1	1.99996E+0	4.53375E-8
5.09500E-1	2.00001E+0	4.20603E-8
5.10000E-1	1.99998E+0	4.07980E-8
5.10500E-1	1.99999E+0	4.11462E-8
5.11000E-1	2.00002E+0	3.81489E-8
5.11500E-1	1.99990E+0	6.80286E-8
5.12000E-1	2.00006E+0	1.48340E-7
5.12500E-1	2.00003E+0	1.16197E-7
5.13000E-1	2.00003E+0	9.65900E-8
5.13500E-1	2.00001E+0	8.51791E-8
5.14000E-1	2.00003E+0	7.61064E-8
5.14500E-1	1.99997E+0	7.01305E-8
5.15000E-1	2.00007E+0	6.30290E-8
5.15500E-1	1.99999E+0	6.02431E-8
5.16000E-1	1.99997E+0	5.58964E-8
5.16500E-1	2.00005E+0	5.21840E-8
5.17000E-1	2.00001E+0	5.13134E-8
5.17500E-1	2.00000E+0	4.66060E-8
5.18000E-1	2.00003E+0	4.88509E-8
5.18500E-1	1.99998E+0	4.43114E-8
5.19000E-1	1.99995E+0	4.40067E-8
5.19500E-1	2.00008E+0	4.07172E-8
5.20000E-1	1.99995E+0	4.11649E-8
5.20500E-1	1.99998E+0	3.92123E-8
5.21000E-1	2.00004E+0	3.89325E-8
5.21500E-1	1.99989E+0	1.13280E-7
5.22000E-1	2.00001E+0	1.34902E-7
5.22500E-1	2.00003E+0	1.06938E-7
5.23000E-1	2.00005E+0	9.28403E-8
5.23500E-1	2.00000E+0	8.24679E-8
5.24000E-1	2.00002E+0	7.21577E-8
5.24500E-1	1.99999E+0	6.75187E-8
5.25000E-1	2.00004E+0	6.26621E-8
5.25500E-1	2.00000E+0	5.97581E-8
5.26000E-1	1.99996E+0	5.46527E-8
5.26500E-1	1.99998E+0	5.37510E-8
5.27000E-1	2.00001E+0	4.99143E-8
5.27500E-1	1.99997E+0	4.73647E-8
5.28000E-1	2.00004E+0	4.74828E-8
5.28500E-1	1.99997E+0	4.34968E-8
5.29000E-1	1.99996E+0	4.22220E-8
5.29500E-1	2.00004E+0	4.25330E-8
5.30000E-1	1.99997E+0	3.94051E-8
5.30500E-1	2.00002E+0	3.81489E-8
5.31000E-1	2.00003E+0	4.26138E-8
5.31500E-1	1.99990E+0	1.47302E-7
5.32000E-1	2.00005E+0	1.24747E-7
5.32500E-1	2.00004E+0	1.00533E-7
5.33000E-1	1.99998E+0	8.87610E-8
5.33500E-1	2.00003E+0	7.91161E-8
5.34000E-1	2.00002E+0	6.95584E-8
5.34500E-1	2.00000E+0	6.53796E-8
5.35000E-1	2.00006E+0	6.20962E-8
5.35500E-1	2.00003E+0	5.84522E-8
5.36000E-1	1.99999E+0	5.31976E-8
5.36500E-1	1.99998E+0	5.19850E-8
5.37000E-1	2.00004E+0	4.95163E-8
5.37500E-1	1.99994E+0	4.61521E-8
5.38000E-1	2.00001E+0	4.67180E-8
5.38500E-1	2.00002E+0	4.31175E-8
5.39000E-1	2.00001E+0	4.14136E-8
5.39500E-1	2.00000E+0	3.97595E-8
5.40000E-1	2.00004E+0	3.93056E-8
5.40500E-1	1.99998E+0	3.86713E-8
5.41000E-1	1.99993E+0	7.80714E-8
5.41500E-1	2.00005E+0	1.45933E-7
5.42000E-1	1.99996E+0	1.14680E-7
5.42500E-1	2.00003E+0	9.67766E-8
5.43000E-1	2.00002E+0	8.51854E-8
5.43500E-1	1.99996E+0	7.47197E-8
5.44000E-1	2.00003E+0	6.93345E-8
5.44500E-1	2.00002E+0	6.35078E-8
5.45000E-1	1.99997E+0	5.97519E-8
5.45500E-1	2.00002E+0	5.72583E-8
5.46000E-1	2.00001E+0	5.23519E-8
5.46500E-1	1.99998E+0	5.02127E-8
5.47000E-1	1.99999E+0	5.05796E-8
5.47500E-1	1.99999E+0	4.36087E-8
5.48000E-1	2.00001E+0	4.42492E-8
5.48500E-1	2.00001E+0	4.56857E-8
5.49000E-1	2.00000E+0	3.97409E-8
5.49500E-1	1.99993E+0	4.18365E-8
5.50000E-1	2.00004E+0	3.74276E-8
5.50500E-1	2.00001E+0	3.96476E-8
5.51000E-1	1.99990E+0	1.20861E-7
5.51500E-1	2.00009E+0	1.30941E-7
5.52000E-1	2.00001E+0	1.08791E-7
5.52500E-1	2.00001E+0	9.15655E-8
5.53000E-1	2.00006E+0	8.23995E-8
5.53500E-1	1.99997E+0	7.18095E-8
5.54000E-1	2.00004E+0	6.74628E-8
5.54500E-1	2.00007E+0	6.27181E-8
5.55000E-1	1.99998E+0	5.67483E-8
5.55500E-1	1.99998E+0	5.83403E-8
5.56000E-1	2.00003E+0	5.16616E-8
5.56500E-1	1.99995E+0	4.91867E-8
5.57000E-1	2.00006E+0	4.88260E-8
5.57500E-1	2.00000E+0	4.35155E-8
5.58000E-1	1.99995E+0	4.69605E-8
5.58500E-1	2.00003E+0	4.08291E-8
5.59000E-1	1.99999E+0	4.23464E-8
5.59500E-1	1.99996E+0	4.15940E-8
5.60000E-1	2.00004E+0	3.87024E-8
5.60500E-1	1.99995E+0	4.43861E-8
5.61000E-1	1.99998E+0	1.50361E-7
5.61500E-1	2.00001E+0	1.21265E-7
5.62000E-1	1.99999E+0	1.00875E-7
5.62500E-1	2.00000E+0	9.03653E-8
5.63000E-1	2.00004E+0	7.64546E-8
5.63500E-1	2.00001E+0	6.88743E-8
5.64000E-1	1.99997E+0	6.85075E-8
5.64500E-1	2.00004E+0	5.82346E-8
5.65000E-1	1.99996E+0	5.74075E-8
5.65500E-1	2.00006E+0	5.39127E-8
5.66000E-1	2.00004E+0	4.99702E-8
5.66500E-1	1.99995E+0	5.09652E-8
5.67000E-1	2.00001E+0	4.66060E-8
5.67500E-1	2.00000E+0	4.50514E-8
5.68000E-1	1.99998E+0	4.34284E-8
5.68500E-1	2.00004E+0	4.32543E-8
5.69000E-1	1.99999E+0	3.84785E-8
5.69500E-1	1.99998E+0	4.27630E-8
5.70000E-1	2.00002E+0	3.82049E-8
5.70500E-1	1.99990E+0	8.40163E-8
5.71000E-1	2.00000E+0	1.45125E-7
5.71500E-1	2.00002E+0	1.13162E-7
5.72000E-1	1.99999E+0	9.68387E-8
5.72500E-1	1.99999E+0	8.49801E-8
5.73000E-1	2.00006E+0	7.25059E-8
5.73500E-1	2.00000E+0	6.87562E-8
5.74000E-1	1.99998E+0	6.55723E-8
5.74500E-1	1.99999E+0	5.80480E-8
5.75000E-1	1.99997E+0	5.62882E-8
5.75500E-1	2.00007E+0	5.34837E-8
5.76000E-1	2.00000E+0	4.98645E-8
5.76500E-1	1.99998E+0	4.93981E-8
5.77000E-1	2.00002E+0	4.89131E-8
5.77500E-1	1.99998E+0	4.15629E-8
5.78000E-1	2.00003E+0	4.42119E-8
5.78500E-1	2.00001E+0	4.24397E-8
5.79000E-1	1.99998E+0	4.09659E-8
5.79500E-1	1.99996E+0	3.97346E-8
5.80000E-1	2.00005E+0	3.66005E-8
5.80500E-1	1.99993E+0	1.27440E-7
5.81000E-1	2.00000E+0	1.33590E-7
5.81500E-1	2.00002E+0	1.07702E-7
5.82000E-1	1.99996E+0	9.11986E-8
5.82500E-1	2.00008E+0	7.96945E-8
5.83000E-1	1.99999E+0	7.30283E-8
5.83500E-1	1.99997E+0	6.85883E-8
5.84000E-1	2.00003E+0	6.25502E-8
5.84500E-1	2.00002E+0	5.55731E-8
5.85000E-1	1.99994E+0	5.57410E-8
5.85500E-1	2.00008E+0	5.29924E-8
5.86000E-1	1.99998E+0	4.74518E-8
5.86500E-1	1.99995E+0	4.99702E-8
5.87000E-1	2.00003E+0	4.58412E-8
5.87500E-1	1.99995E+0	4.41187E-8
5.88000E-1	1.99999E+0	4.28936E-8
5.88500E-1	2.00001E+0	4.03005E-8
5.89000E-1	2.00001E+0	3.97720E-8
5.89500E-1	2.00002E+0	3.98155E-8
5.90000E-1	1.99997E+0	4.83161E-8
5.90500E-1	1.99995E+0	1.52817E-7
5.91000E-1	1.99999E+0	1.20687E-7
5.91500E-1	2.00002E+0	1.00445E-7
5.92000E-1	1.99996E+0	8.85433E-8
5.92500E-1	2.00006E+0	7.63614E-8
5.93000E-1	2.00000E+0	6.95895E-8
5.93500E-1	1.99995E+0	6.77985E-8
5.94000E-1	2.00007E+0	5.93601E-8
5.94500E-1	1.99999E+0	5.61141E-8
5.95000E-1	2.00001E+0	5.57907E-8
5.95500E-1	2.00002E+0	5.01754E-8
5.96000E-1	2.00005E+0	4.92489E-8
5.96500E-1	1.99999E+0	4.76632E-8
5.97000E-1	2.00001E+0	4.50141E-8
5.97500E-1	1.99999E+0	4.31175E-8
5.98000E-1	1.99995E+0	4.45913E-8
5.98500E-1	2.00003E+0	4.06923E-8
5.99000E-1	1.99998E+0	3.73343E-8
5.99500E-1	1.99998E+0	4.13017E-8
6.00000E-1	1.99993E+0	9.13230E-8
6.00500E-1	2.00005E+0	1.38471E-7
6.01000E-1	2.00000E+0	1.15507E-7
6.01500E-1	2.00006E+0	9.55142E-8
6.02000E-1	2.00000E+0	8.31768E-8
6.02500E-1	2.00000E+0	7.58390E-8
6.03000E-1	1.99999E+0	7.09264E-8
6.03500E-1	1.99999E+0	6.04981E-8
6.04000E-1	1.99997E+0	6.00006E-8
6.04500E-1	2.00004E+0	5.66799E-8
6.05000E-1	1.99998E+0	5.38070E-8
6.05500E-1	2.00000E+0	4.88136E-8
6.06000E-1	2.00004E+0	4.92302E-8
6.06500E-1	1.99994E+0	4.73709E-8
6.07000E-1	2.00001E+0	4.42492E-8
6.07500E-1	2.00003E+0	4.20728E-8
6.08000E-1	1.99996E+0	4.30366E-8
6.08500E-1	2.00000E+0	4.12582E-8
6.09000E-1	2.00003E+0	3.90506E-8
6.09500E-1	1.99995E+0	3.79997E-8
6.10000E-1	1.99996E+0	1.34100E-7
6.10500E-1	2.00004E+0	1.25929E-7
6.11000E-1	1.99997E+0	1.07528E-7
6.11500E-1	2.00004E+0	9.11489E-8
6.12000E-1	1.99998E+0	7.92156E-8
6.12500E-1	1.99997E+0	7.50493E-8
6.13000E-1	2.00003E+0	6.71518E-8
6.13500E-1	1.99998E+0	5.88937E-8
6.14000E-1	1.99999E+0	5.88129E-8
6.14500E-1	2.00008E+0	5.43480E-8
6.15000E-1	1.99999E+0	5.12326E-8
6.15500E-1	1.99997E+0	5.30981E-8
6.16000E-1	2.00003E+0	4.52380E-8
6.16500E-1	1.99999E+0	4.71346E-8
6.17000E-1	1.99993E+0	4.49271E-8
6.17500E-1	2.00007E+0	4.28066E-8
6.18000E-1	1.99997E+0	3.95046E-8
6.18500E-1	1.99995E+0	4.31548E-8
6.19000E-1	2.00004E+0	3.67809E-8
6.19500E-1	1.99988E+0	5.59026E-8
6.20000E-1	2.00003E+0	1.52755E-7
6.20500E-1	2.00006E+0	1.19673E-7
6.21000E-1	1.99995E+0	9.93386E-8
6.21500E-1	2.00002E+0	8.68706E-8
6.22000E-1	2.00002E+0	7.58141E-8
6.22500E-1	2.00001E+0	7.02175E-8
6.23000E-1	1.99999E+0	6.72762E-8
6.23500E-1	2.00004E+0	5.82532E-8
6.24000E-1	2.00001E+0	5.75630E-8
6.24500E-1	1.99998E+0	5.62695E-8
6.25000E-1	2.00004E+0	5.04677E-8
6.25500E-1	1.99995E+0	4.82912E-8
6.26000E-1	2.00007E+0	4.68672E-8
6.26500E-1	1.99999E+0	4.50452E-8
6.27000E-1	1.99996E+0	4.45042E-8
6.27500E-1	2.00004E+0	3.99523E-8
6.28000E-1	2.00002E+0	4.12271E-8
6.28500E-1	2.00000E+0	4.15753E-8
6.29000E-1	2.00006E+0	3.80121E-8
6.29500E-1	1.99988E+0	1.00875E-7
6.30000E-1	2.00005E+0	1.38907E-7
6.30500E-1	2.00004E+0	1.12093E-7
6.31000E-1	1.99996E+0	9.43887E-8
6.31500E-1	2.00001E+0	8.55647E-8
6.32000E-1	2.00004E+0	7.22758E-8
6.32500E-1	2.00000E+0	6.92972E-8
6.33000E-1	2.00002E+0	6.46893E-8
6.33500E-1	2.00003E+0	5.88688E-8
6.34000E-1	1.99996E+0	5.53181E-8
6.34500E-1	2.00002E+0	5.33904E-8
6.35000E-1	1.99999E+0	5.05423E-8
6.35500E-1	1.99997E+0	4.78373E-8
6.36000E-1	1.99999E+0	4.82975E-8
6.36500E-1	2.00003E+0	4.39881E-8
6.37000E-1	1.99996E+0	4.40565E-8
6.37500E-1	2.00003E+0	3.96911E-8
6.38000E-1	1.99997E+0	4.09535E-8
6.38500E-1	2.00001E+0	3.93491E-8
6.39000E-1	2.00005E+0	4.10405E-8
6.39500E-1	1.99992E+0	1.38589E-7
6.40000E-1	1.99999E+0	1.27950E-7
6.40500E-1	2.00005E+0	1.04898E-7
6.41000E-1	2.00003E+0	8.83630E-8
6.41500E-1	2.00001E+0	8.25363E-8
6.42000E-1	2.00001E+0	7.07710E-8
6.42500E-1	2.00000E+0	6.66295E-8
6.43000E-1	1.99998E+0	6.25688E-8
6.43500E-1	2.00003E+0	5.74883E-8
6.44000E-1	1.99999E+0	5.44662E-8
6.44500E-1	2.00000E+0	5.29800E-8
6.45000E-1	1.99999E+0	4.89069E-8
6.45500E-1	1.99998E+0	4.80985E-8
6.46000E-1	1.99996E+0	4.79119E-8
6.46500E-1	2.00001E+0	4.26884E-8
6.47000E-1	1.99999E+0	4.47903E-8
6.47500E-1	2.00001E+0	3.97595E-8
6.48000E-1	1.99998E+0	3.97036E-8
6.48500E-1	2.00002E+0	3.92123E-8
6.49000E-1	1.99993E+0	6.62626E-8
6.49500E-1	1.99999E+0	1.47096E-7
6.50000E-1	1.99996E+0	1.19648E-7
6.50500E-1	2.00009E+0	9.76036E-8
6.51000E-1	2.00001E+0	8.70820E-8
6.51500E-1	1.99997E+0	7.85067E-8
6.52000E-1	2.00005E+0	6.76991E-8
6.52500E-1	1.99999E+0	6.64118E-8
6.53000E-1	1.99999E+0	6.02866E-8
6.53500E-1	2.00006E+0	5.68416E-8
6.54000E-1	2.00000E+0	5.20099E-8
6.54500E-1	1.99997E+0	5.28494E-8
6.55000E-1	2.00006E+0	4.86084E-8
6.55500E-1	1.99999E+0	4.79306E-8
6.56000E-1	1.99993E+0	4.63946E-8
6.56500E-1	2.00003E+0	4.35777E-8
6.57000E-1	1.99999E+0	4.05928E-8
6.57500E-1	1.99997E+0	4.10592E-8
6.58000E-1	2.00007E+0	4.06114E-8
6.58500E-1	2.00000E+0	3.85842E-8
6.59000E-1	1.99989E+0	1.10439E-7
6.59500E-1	2.00006E+0	1.35748E-7
6.60000E-1	1.99999E+0	1.10737E-7
6.60500E-1	2.00004E+0	9.33875E-8
6.61000E-1	2.00002E+0	8.42899E-8
6.61500E-1	2.00001E+0	7.26552E-8
6.62000E-1	2.00000E+0	7.00994E-8
6.62500E-1	2.00002E+0	6.40613E-8
6.63000E-1	1.99995E+0	5.76749E-8
6.63500E-1	2.00003E+0	5.48642E-8
6.64000E-1	2.00003E+0	5.50321E-8
6.64500E-1	1.99999E+0	4.81233E-8
6.65000E-1	1.99995E+0	5.09590E-8
6.65500E-1	2.00001E+0	4.59407E-8
6.66000E-1	2.00000E+0	4.60899E-8
6.66500E-1	2.00001E+0	4.32667E-8
6.67000E-1	2.00002E+0	4.32356E-8
6.67500E-1	1.99996E+0	4.09037E-8
6.68000E-1	1.99998E+0	4.08975E-8
6.68500E-1	1.99996E+0	4.13950E-8
6.69000E-1	1.99991E+0	1.44105E-7
6.69500E-1	2.00007E+0	1.25500E-7
6.70000E-1	1.99999E+0	1.05458E-7
6.70500E-1	1.99997E+0	8.87112E-8
6.71000E-1	2.00001E+0	8.14543E-8
6.71500E-1	2.00000E+0	6.99626E-8
6.72000E-1	2.00002E+0	6.58522E-8
6.72500E-1	2.00004E+0	6.26434E-8
6.73000E-1	1.99999E+0	5.73391E-8
6.73500E-1	1.99998E+0	5.70593E-8
6.74000E-1	2.00001E+0	5.32971E-8
6.74500E-1	2.00000E+0	4.75637E-8
6.75000E-1	2.00005E+0	4.70102E-8
6.75500E-1	2.00004E+0	4.68175E-8
6.76000E-1	1.99996E+0	4.43736E-8
6.76500E-1	2.00002E+0	4.39756E-8
6.77000E-1	2.00004E+0	3.99958E-8
6.77500E-1	1.99995E+0	4.07234E-8
6.78000E-1	1.99998E+0	4.09659E-8
6.78500E-1	1.99993E+0	6.95584E-8
6.79000E-1	2.00002E+0	1.45797E-7
6.79500E-1	2.00001E+0	1.19325E-7
6.80000E-1	2.00001E+0	9.61609E-8
6.80500E-1	1.99998E+0	8.64601E-8
6.81000E-1	1.99998E+0	7.77667E-8
6.81500E-1	2.00003E+0	6.84701E-8
6.82000E-1	1.99999E+0	6.69280E-8
6.82500E-1	2.00001E+0	6.13127E-8
6.83000E-1	2.00003E+0	5.63006E-8
6.83500E-1	1.99998E+0	5.45159E-8
6.84000E-1	1.99996E+0	5.35583E-8
6.84500E-1	2.00001E+0	4.82539E-8
6.85000E-1	1.99993E+0	4.77565E-8
6.85500E-1	2.00005E+0	4.42617E-8
6.86000E-1	1.99998E+0	4.48835E-8
6.86500E-1	1.99997E+0	4.10965E-8
6.87000E-1	2.00001E+0	4.21847E-8
6.87500E-1	1.99999E+0	3.87397E-8
6.88000E-1	1.99998E+0	4.10343E-8
6.88500E-1	1.99994E+0	1.16974E-7
6.89000E-1	2.00001E+0	1.33540E-7
6.89500E-1	1.99998E+0	1.10743E-7
6.90000E-1	2.00002E+0	9.36052E-8
6.90500E-1	1.99998E+0	8.25052E-8
6.91000E-1	1.99997E+0	7.44088E-8
6.91500E-1	2.00005E+0	6.95397E-8
6.92000E-1	2.00000E+0	6.08774E-8
6.92500E-1	1.99998E+0	6.06287E-8
6.93000E-1	2.00007E+0	5.44973E-8
6.93500E-1	1.99995E+0	5.33531E-8
6.94000E-1	1.99999E+0	5.20907E-8
6.94500E-1	2.00003E+0	4.76134E-8
6.95000E-1	2.00000E+0	4.63013E-8
6.95500E-1	2.00000E+0	4.41995E-8
6.96000E-1	2.00003E+0	4.24086E-8
6.96500E-1	1.99997E+0	4.27755E-8
6.97000E-1	2.00002E+0	4.01078E-8
6.97500E-1	2.00007E+0	3.89698E-8
6.98000E-1	1.99993E+0	4.40316E-8
6.98500E-1	1.99991E+0	1.51157E-7
6.99000E-1	2.00004E+0	1.21601E-7
6.99500E-1	2.00001E+0	1.03754E-7
7.00000E-1	1.99999E+0	9.17583E-8
7.00500E-1	2.00005E+0	7.68899E-8
7.01000E-1	1.99995E+0	7.27858E-8
7.01500E-1	2.00007E+0	6.78794E-8
7.02000E-1	2.00000E+0	6.14433E-8
7.02500E-1	2.00001E+0	5.58031E-8
7.03000E-1	2.00003E+0	5.46900E-8
7.03500E-1	2.00001E+0	5.38132E-8
7.04000E-1	2.00001E+0	5.02998E-8
7.04500E-1	2.00002E+0	4.80736E-8
7.05000E-1	2.00001E+0	4.49644E-8
7.05500E-1	1.99996E+0	4.64319E-8
7.06000E-1	2.00002E+0	4.22158E-8
7.06500E-1	1.99999E+0	4.29807E-8
7.07000E-1	1.99997E+0	4.17246E-8
7.07500E-1	2.00003E+0	3.91377E-8
7.08000E-1	1.99990E+0	8.01671E-8
7.08500E-1	2.00001E+0	1.44609E-7
7.09000E-1	2.00004E+0	1.16483E-7
7.09500E-1	1.99997E+0	9.65216E-8
7.10000E-1	2.00003E+0	8.66840E-8
7.10500E-1	2.00004E+0	7.55841E-8
7.11000E-1	1.99993E+0	6.95522E-8
7.11500E-1	2.00003E+0	6.37441E-8
7.12000E-1	2.00003E+0	6.12070E-8
7.12500E-1	1.99997E+0	5.67670E-8
7.13000E-1	2.00001E+0	5.58964E-8
7.13500E-1	2.00000E+0	5.04117E-8
7.14000E-1	1.99996E+0	4.96904E-8
7.14500E-1	2.00001E+0	4.78124E-8
7.15000E-1	2.00003E+0	4.27444E-8
7.15500E-1	1.99995E+0	4.71781E-8
7.16000E-1	2.00001E+0	4.16499E-8
7.16500E-1	1.99997E+0	3.98404E-8
7.17000E-1	1.99996E+0	4.26635E-8
7.17500E-1	2.00002E+0	3.95730E-8
7.18000E-1	1.99989E+0	1.22359E-7
7.18500E-1	1.99999E+0	1.33509E-7
7.19000E-1	2.00005E+0	1.08542E-7
7.19500E-1	1.99997E+0	9.14847E-8
7.20000E-1	1.99999E+0	8.30960E-8
7.20500E-1	2.00004E+0	7.09762E-8
7.21000E-1	2.00003E+0	6.79664E-8
7.21500E-1	2.00000E+0	6.47764E-8
7.22000E-1	2.00003E+0	5.86014E-8
7.22500E-1	1.99998E+0	5.74386E-8
7.23000E-1	2.00002E+0	5.19290E-8
7.23500E-1	2.00001E+0	5.22275E-8
7.24000E-1	1.99994E+0	4.86892E-8
7.24500E-1	2.00004E+0	4.56546E-8
7.25000E-1	2.00000E+0	4.55427E-8
7.25500E-1	1.99995E+0	4.39881E-8
7.26000E-1	2.00006E+0	4.24086E-8
7.26500E-1	1.99999E+0	3.85407E-8
7.27000E-1	2.00001E+0	4.11711E-8
7.27500E-1	1.99998E+0	4.63884E-8
7.28000E-1	1.99996E+0	1.51742E-7
7.28500E-1	1.99997E+0	1.22801E-7
7.29000E-1	2.00006E+0	1.02784E-7
7.29500E-1	2.00001E+0	8.84003E-8
7.30000E-1	1.99995E+0	8.08573E-8
7.30500E-1	2.00005E+0	6.95211E-8
7.31000E-1	2.00000E+0	6.73570E-8
7.31500E-1	1.99996E+0	6.34705E-8
7.32000E-1	2.00005E+0	5.61327E-8
7.32500E-1	1.99996E+0	5.45719E-8
7.33000E-1	1.99999E+0	5.31603E-8
7.33500E-1	2.00002E+0	4.85835E-8
7.34000E-1	1.99998E+0	5.01941E-8
7.34500E-1	2.00000E+0	4.51571E-8
7.35000E-1	2.00007E+0	4.24832E-8
7.35500E-1	1.99994E+0	4.38575E-8
7.36000E-1	2.00006E+0	4.19235E-8
7.36500E-1	2.00003E+0	3.98404E-8
7.37000E-1	1.99994E+0	4.17370E-8
7.37500E-1	1.99994E+0	8.53719E-8
7.38000E-1	2.00004E+0	1.43365E-7
7.38500E-1	1.99997E+0	1.14213E-7
7.39000E-1	2.00007E+0	9.89468E-8
7.39500E-1	1.99998E+0	8.48931E-8
7.40000E-1	1.99998E+0	7.70330E-8
7.40500E-1	2.00000E+0	6.81033E-8
7.41000E-1	2.00001E+0	6.55288E-8
7.41500E-1	1.99998E+0	6.06162E-8
7.42000E-1	2.00005E+0	5.60332E-8
7.42500E-1	1.99998E+0	5.55606E-8
7.43000E-1	1.99997E+0	5.20534E-8
7.43500E-1	2.00005E+0	4.84094E-8
7.44000E-1	1.99997E+0	4.55116E-8
7.44500E-1	1.99997E+0	4.77813E-8
7.45000E-1	2.00002E+0	4.15940E-8
7.45500E-1	1.99999E+0	4.33351E-8
7.46000E-1	2.00002E+0	4.10405E-8
7.46500E-1	2.00002E+0	4.02446E-8
7.47000E-1	1.99997E+0	3.91999E-8
7.47500E-1	1.99989E+0	1.33179E-7
7.48000E-1	2.00004E+0	1.28279E-7
7.48500E-1	2.00001E+0	1.09307E-7
7.49000E-1	2.00002E+0	9.35243E-8
7.49500E-1	1.99999E+0	8.23186E-8
7.50000E-1	1.99996E+0	7.53602E-8
7.50500E-1	2.00001E+0	6.83147E-8
7.51000E-1	2.00001E+0	6.25937E-8
7.51500E-1	2.00001E+0	5.81288E-8
7.52000E-1	1.99997E+0	5.88937E-8
7.52500E-1	1.99994E+0	5.17860E-8
7.53000E-1	1.99998E+0	5.10958E-8
7.53500E-1	2.00003E+0	4.89442E-8
7.54000E-1	1.99998E+0	4.57914E-8
7.54500E-1	1.99997E+0	4.60713E-8
7.55000E-1	2.00003E+0	4.11089E-8
7.55500E-1	2.00000E+0	4.26387E-8
7.56000E-1	2.00001E+0	4.09348E-8
7.56500E-1	2.00004E+0	4.05493E-8
7.57000E-1	1.99991E+0	5.11331E-8
7.57500E-1	2.00003E+0	1.49776E-7
7.58000E-1	2.00006E+0	1.23018E-7
7.58500E-1	1.99999E+0	1.01882E-7
7.59000E-1	2.00002E+0	8.69390E-8
7.59500E-1	2.00005E+0	7.89172E-8
7.60000E-1	1.99998E+0	7.21266E-8
7.60500E-1	2.00002E+0	6.53796E-8
7.61000E-1	2.00001E+0	6.27243E-8
7.61500E-1	1.99999E+0	5.75319E-8
7.62000E-1	2.00000E+0	5.48517E-8
7.62500E-1	2.00002E+0	5.05859E-8
7.63000E-1	1.99996E+0	5.17363E-8
7.63500E-1	1.99997E+0	4.91991E-8
7.64000E-1	2.00001E+0	4.29869E-8
7.64500E-1	2.00000E+0	4.53561E-8
7.65000E-1	2.00003E+0	4.39197E-8
7.65500E-1	1.99998E+0	4.03441E-8
7.66000E-1	1.99995E+0	4.08913E-8
7.66500E-1	2.00009E+0	3.79624E-8
7.67000E-1	1.99989E+0	9.70004E-8
7.67500E-1	2.00001E+0	1.42047E-7
7.68000E-1	2.00005E+0	1.12870E-7
7.68500E-1	1.99999E+0	9.74357E-8
7.69000E-1	1.99999E+0	8.46195E-8
7.69500E-1	2.00004E+0	7.59074E-8
7.70000E-1	1.99999E+0	7.11752E-8
7.70500E-1	2.00003E+0	6.43722E-8
7.71000E-1	1.99997E+0	6.06722E-8
7.71500E-1	1.99999E+0	5.56352E-8
7.72000E-1	2.00002E+0	5.51937E-8
7.72500E-1	2.00003E+0	4.82664E-8
7.73000E-1	1.99996E+0	4.93981E-8
7.73500E-1	2.00005E+0	4.60775E-8
7.74000E-1	2.00002E+0	4.69729E-8
7.74500E-1	1.99993E+0	4.32356E-8
7.75000E-1	2.00003E+0	4.07793E-8
7.75500E-1	2.00002E+0	4.22718E-8
7.76000E-1	1.99995E+0	3.93056E-8
7.76500E-1	2.00004E+0	3.94859E-8
7.77000E-1	1.99992E+0	1.34603E-7
7.77500E-1	2.00002E+0	1.30226E-7
7.78000E-1	2.00002E+0	1.07609E-7
7.78500E-1	2.00001E+0	9.04337E-8
7.79000E-1	1.99998E+0	8.12055E-8
7.79500E-1	2.00005E+0	7.40170E-8
7.80000E-1	2.00002E+0	6.82649E-8
7.80500E-1	1.99995E+0	6.22082E-8
7.81000E-1	2.00006E+0	5.82594E-8
7.81500E-1	2.00000E+0	5.65058E-8
7.82000E-1	2.00002E+0	5.22835E-8
7.82500E-1	1.99998E+0	5.17363E-8
7.83000E-1	2.00003E+0	4.69232E-8
7.83500E-1	1.99999E+0	4.65128E-8
7.84000E-1	2.00006E+0	4.56981E-8
7.84500E-1	2.00000E+0	4.17992E-8
7.85000E-1	1.99997E+0	4.28812E-8
7.85500E-1	2.00006E+0	4.10778E-8
7.86000E-1	2.00000E+0	3.77820E-8
7.86500E-1	1.99986E+0	5.90492E-8
7.87000E-1	2.00008E+0	1.50834E-7
7.87500E-1	1.99999E+0	1.19287E-7
7.88000E-1	1.99999E+0	1.00694E-7
7.88500E-1	2.00003E+0	8.97311E-8
7.89000E-1	1.99998E+0	7.66225E-8
7.89500E-1	2.00001E+0	7.33952E-8
7.90000E-1	2.00004E+0	6.61942E-8
7.90500E-1	1.99996E+0	5.97581E-8
7.91000E-1	1.99998E+0	6.01374E-8
7.91500E-1	2.00006E+0	5.24576E-8
7.92000E-1	1.99998E+0	5.34588E-8
7.92500E-1	2.00002E+0	5.00324E-8
7.93000E-1	1.99999E+0	4.67615E-8
7.93500E-1	1.99999E+0	4.68237E-8
7.94000E-1	2.00003E+0	4.48960E-8
7.94500E-1	2.00001E+0	4.20728E-8
7.95000E-1	1.99993E+0	4.21598E-8
7.95500E-1	2.00006E+0	4.04498E-8
7.96000E-1	1.99999E+0	3.67000E-8
7.96500E-1	1.99989E+0	1.06353E-7
7.97000E-1	2.00008E+0	1.37327E-7
7.97500E-1	1.99995E+0	1.12571E-7
7.98000E-1	1.99995E+0	9.70688E-8
7.98500E-1	2.00003E+0	8.19891E-8
7.99000E-1	2.00000E+0	7.49187E-8
7.99500E-1	1.99999E+0	7.08705E-8
8.00000E-1	2.00005E+0	6.37690E-8
8.00500E-1	1.99996E+0	5.98451E-8
8.01000E-1	2.00000E+0	5.73142E-8
8.01500E-1	2.00004E+0	5.21840E-8
8.02000E-1	1.99996E+0	5.01879E-8
8.02500E-1	2.00002E+0	4.98272E-8
8.03000E-1	2.00002E+0	4.52815E-8
8.03500E-1	1.99999E+0	4.70600E-8
8.04000E-1	2.00003E+0	4.43550E-8
8.04500E-1	2.00001E+0	4.19919E-8
8.05000E-1	1.99996E+0	4.46161E-8
8.05500E-1	2.00002E+0	3.94051E-8
8.06000E-1	1.99995E+0	4.06363E-8
8.06500E-1	1.99991E+0	1.44031E-7
8.07000E-1	2.00005E+0	1.27359E-7
8.07500E-1	1.99996E+0	1.05290E-7
8.08000E-1	2.00008E+0	9.04959E-8
8.08500E-1	2.00004E+0	8.12055E-8
8.09000E-1	1.99996E+0	7.38056E-8
8.09500E-1	2.00005E+0	6.80348E-8
8.10000E-1	1.99997E+0	6.22517E-8
8.10500E-1	1.99998E+0	6.01312E-8
8.11000E-1	2.00005E+0	5.40371E-8
8.11500E-1	2.00000E+0	5.21778E-8
8.12000E-1	1.99998E+0	5.21094E-8
8.12500E-1	2.00005E+0	4.76943E-8
8.13000E-1	1.99996E+0	4.60961E-8
8.13500E-1	1.99999E+0	4.26946E-8
8.14000E-1	2.00004E+0	4.45539E-8
8.14500E-1	1.99996E+0	4.17805E-8
8.15000E-1	2.00004E+0	4.13514E-8
8.15500E-1	2.00003E+0	3.70669E-8
8.16000E-1	1.99983E+0	6.84328E-8
8.16500E-1	2.00010E+0	1.46624E-7
8.17000E-1	2.00002E+0	1.18286E-7
8.17500E-1	2.00001E+0	1.01863E-7
8.18000E-1	2.00007E+0	8.49242E-8
8.18500E-1	2.00000E+0	7.85814E-8
8.19000E-1	1.99999E+0	7.11005E-8
8.19500E-1	2.00006E+0	6.42229E-8
8.20000E-1	1.99996E+0	6.18724E-8
8.20500E-1	2.00001E+0	5.80853E-8
8.21000E-1	2.00004E+0	5.11704E-8
8.21500E-1	2.00002E+0	5.30919E-8
8.22000E-1	2.00005E+0	4.93857E-8
8.22500E-1	1.99994E+0	4.71222E-8
8.23000E-1	1.99997E+0	4.75077E-8
8.23500E-1	2.00007E+0	4.33414E-8
8.24000E-1	1.99995E+0	4.12457E-8
8.24500E-1	2.00000E+0	4.28750E-8
8.25000E-1	2.00003E+0	3.93118E-8
8.25500E-1	1.99998E+0	3.84474E-8
8.26000E-1	1.99990E+0	1.11241E-7
8.26500E-1	2.00004E+0	1.36320E-7
8.27000E-1	1.99998E+0	1.09251E-7
8.27500E-1	2.00008E+0	9.53152E-8
8.28000E-1	2.00003E+0	8.31644E-8
8.28500E-1	1.99999E+0	7.67220E-8
8.29000E-1	1.99994E+0	6.82463E-8
8.29500E-1	2.00008E+0	6.26932E-8
8.30000E-1	1.99999E+0	5.93663E-8
8.30500E-1	2.00000E+0	5.85704E-8
8.31000E-1	2.00004E+0	5.19726E-8
8.31500E-1	1.99998E+0	4.95785E-8
8.32000E-1	2.00005E+0	4.91743E-8
8.32500E-1	2.00002E+0	4.62267E-8
8.33000E-1	1.99995E+0	4.76321E-8
8.33500E-1	2.00003E+0	4.45726E-8
8.34000E-1	1.99999E+0	4.15567E-8
8.34500E-1	1.99994E+0	4.36709E-8
8.35000E-1	2.00004E+0	3.96103E-8
8.35500E-1	1.99996E+0	4.07856E-8
8.36000E-1	1.99996E+0	1.47078E-7
8.36500E-1	2.00004E+0	1.27060E-7
8.37000E-1	2.00000E+0	1.03119E-7
8.37500E-1	1.99997E+0	9.30766E-8
8.38000E-1	2.00007E+0	7.99494E-8
8.38500E-1	1.99996E+0	7.14923E-8
8.39000E-1	2.00003E+0	6.88557E-8
8.39500E-1	2.00000E+0	6.29668E-8
8.40000E-1	1.99998E+0	5.84273E-8
8.40500E-1	2.00002E+0	5.55109E-8
8.41000E-1	2.00000E+0	5.29053E-8
8.41500E-1	2.00000E+0	5.09901E-8
8.42000E-1	2.00003E+0	4.87514E-8
8.42500E-1	1.99997E+0	4.44296E-8
8.43000E-1	1.99997E+0	4.69916E-8
8.43500E-1	2.00006E+0	4.25578E-8
8.44000E-1	1.99999E+0	4.16064E-8
8.44500E-1	1.99998E+0	4.17246E-8
8.45000E-1	1.99999E+0	3.77136E-8
8.45500E-1	1.99990E+0	7.71325E-8
8.46000E-1	2.00001E+0	1.45865E-7
8.46500E-1	2.00005E+0	1.16104E-7
8.47000E-1	1.99996E+0	9.92329E-8
8.47500E-1	2.00007E+0	8.52849E-8
8.48000E-1	2.00001E+0	7.68029E-8
8.48500E-1	1.99997E+0	7.28355E-8
8.49000E-1	2.00005E+0	6.46271E-8
8.49500E-1	1.99999E+0	5.99446E-8
8.50000E-1	2.00000E+0	5.69598E-8
8.50500E-1	2.00003E+0	5.54487E-8
8.51000E-1	1.99999E+0	5.20969E-8
8.51500E-1	1.99998E+0	5.09465E-8
8.52000E-1	2.00000E+0	4.60650E-8
8.52500E-1	1.99996E+0	4.73833E-8
8.53000E-1	2.00003E+0	4.46534E-8
8.53500E-1	2.00004E+0	3.98963E-8
8.54000E-1	1.99997E+0	4.21723E-8
8.54500E-1	1.99996E+0	4.30242E-8
8.55000E-1	2.00002E+0	3.80246E-8
8.55500E-1	1.99989E+0	1.16533E-7
8.56000E-1	2.00004E+0	1.36724E-7
8.56500E-1	2.00001E+0	1.07280E-7
8.57000E-1	2.00003E+0	9.51162E-8
8.57500E-1	2.00001E+0	8.29591E-8
8.58000E-1	1.99999E+0	7.58141E-8
8.58500E-1	1.99996E+0	6.99253E-8
8.59000E-1	2.00006E+0	6.08961E-8
8.59500E-1	1.99999E+0	6.05230E-8
8.60000E-1	1.99998E+0	5.79734E-8
8.60500E-1	2.00007E+0	5.18917E-8
8.61000E-1	1.99994E+0	5.02998E-8
8.61500E-1	2.00006E+0	4.89069E-8
8.62000E-1	1.99998E+0	4.57976E-8
8.62500E-1	1.99996E+0	4.74642E-8
8.63000E-1	2.00003E+0	4.36336E-8
8.63500E-1	1.99999E+0	4.12644E-8
8.64000E-1	1.99999E+0	4.18365E-8
8.64500E-1	2.00004E+0	3.85345E-8
8.65000E-1	1.99996E+0	4.51634E-8
8.65500E-1	1.99989E+0	1.50224E-7
8.66000E-1	2.00008E+0	1.22913E-7
8.66500E-1	2.00001E+0	1.04562E-7
8.67000E-1	1.99996E+0	9.01912E-8
8.67500E-1	2.00003E+0	7.74745E-8
8.68000E-1	1.99999E+0	7.25619E-8
8.68500E-1	2.00001E+0	6.70275E-8
8.69000E-1	2.00004E+0	6.19408E-8
8.69500E-1	2.00003E+0	5.75941E-8
8.70000E-1	2.00000E+0	5.70655E-8
8.70500E-1	2.00001E+0	5.12326E-8
8.71000E-1	1.99998E+0	5.22586E-8
8.71500E-1	2.00002E+0	4.72279E-8
8.72000E-1	1.99999E+0	4.74518E-8
8.72500E-1	1.99996E+0	4.55738E-8
8.73000E-1	2.00003E+0	4.16561E-8
8.73500E-1	2.00002E+0	4.21101E-8
8.74000E-1	1.99995E+0	4.28190E-8
8.74500E-1	2.00004E+0	4.03441E-8
8.75000E-1	1.99986E+0	8.47190E-8
8.75500E-1	1.99998E+0	1.46132E-7
8.76000E-1	2.00004E+0	1.16775E-7
8.76500E-1	1.99994E+0	9.83934E-8
8.77000E-1	2.00005E+0	8.60248E-8
8.77500E-1	2.00000E+0	7.78351E-8
8.78000E-1	1.99998E+0	6.99750E-8
8.78500E-1	1.99999E+0	6.69591E-8
8.79000E-1	2.00004E+0	5.89746E-8
8.79500E-1	1.99996E+0	5.86388E-8
8.80000E-1	2.00002E+0	5.44724E-8
8.80500E-1	2.00000E+0	5.02874E-8
8.81000E-1	2.00000E+0	5.08843E-8
8.81500E-1	1.99999E+0	4.79928E-8
8.82000E-1	1.99998E+0	4.65563E-8
8.82500E-1	2.00000E+0	4.50079E-8
8.83000E-1	2.00002E+0	4.36461E-8
8.83500E-1	1.99997E+0	4.04684E-8
8.84000E-1	2.00000E+0	4.09721E-8
8.84500E-1	2.00003E+0	4.13888E-8
8.85000E-1	1.99991E+0	1.23547E-7
8.85500E-1	2.00004E+0	1.31364E-7
8.86000E-1	2.00004E+0	1.10606E-7
8.86500E-1	2.00002E+0	9.33564E-8
8.87000E-1	1.99995E+0	8.24803E-8
8.87500E-1	2.00003E+0	7.52420E-8
8.88000E-1	1.99999E+0	6.63248E-8
8.88500E-1	1.99995E+0	6.52428E-8
8.89000E-1	2.00006E+0	5.72707E-8
8.89500E-1	1.99999E+0	5.63690E-8
8.90000E-1	2.00001E+0	5.28556E-8
8.90500E-1	2.00005E+0	4.90561E-8
8.91000E-1	2.00001E+0	5.03744E-8
8.91500E-1	1.99999E+0	4.67366E-8
8.92000E-1	2.00001E+0	4.49395E-8
8.92500E-1	1.99998E+0	4.30926E-8
8.93000E-1	2.00003E+0	4.31486E-8
8.93500E-1	2.00002E+0	3.99523E-8
8.94000E-1	1.99998E+0	4.02757E-8
8.94500E-1	2.00003E+0	4.84156E-8
8.95000E-1	1.99998E+0	1.51941E-7
8.95500E-1	1.99999E+0	1.24554E-7
8.96000E-1	2.00006E+0	1.03524E-7
8.96500E-1	2.00000E+0	8.89351E-8
8.97000E-1	1.99999E+0	7.83077E-8
8.97500E-1	2.00004E+0	7.35942E-8
8.98000E-1	1.99999E+0	6.75622E-8
8.98500E-1	1.99999E+0	6.21149E-8
8.99000E-1	2.00004E+0	5.74075E-8
8.99500E-1	2.00001E+0	5.63131E-8
9.00000E-1	1.99999E+0	5.30732E-8
9.00500E-1	2.00001E+0	5.08657E-8
9.01000E-1	2.00000E+0	4.71968E-8
9.01500E-1	2.00001E+0	4.82291E-8
9.02000E-1	2.00001E+0	4.47592E-8
9.02500E-1	1.99999E+0	4.17308E-8
9.03000E-1	1.99998E+0	4.46783E-8
9.03500E-1	1.99999E+0	4.07420E-8
9.04000E-1	2.00001E+0	3.94175E-8
9.04500E-1	1.99992E+0	9.08877E-8
9.05000E-1	2.00005E+0	1.41195E-7
9.05500E-1	1.99998E+0	1.16414E-7
9.06000E-1	2.00007E+0	9.85737E-8
9.06500E-1	1.99996E+0	8.39106E-8
9.07000E-1	1.99998E+0	7.84010E-8
9.07500E-1	2.00006E+0	6.82649E-8
9.08000E-1	2.00000E+0	6.49940E-8
9.08500E-1	1.99996E+0	6.25750E-8
9.09000E-1	2.00010E+0	5.62820E-8
9.09500E-1	1.99999E+0	5.60084E-8
9.10000E-1	1.99997E+0	5.26069E-8
9.10500E-1	2.00004E+0	4.92178E-8
9.11000E-1	1.99997E+0	4.67055E-8
9.11500E-1	2.00000E+0	4.77565E-8
9.12000E-1	2.00002E+0	4.39259E-8
9.12500E-1	1.99998E+0	4.27568E-8
9.13000E-1	1.99999E+0	4.45850E-8
9.13500E-1	1.99999E+0	3.88703E-8
9.14000E-1	1.99997E+0	4.13017E-8
9.14500E-1	1.99991E+0	1.32676E-7
9.15000E-1	2.00001E+0	1.30611E-7
9.15500E-1	2.00000E+0	1.08697E-7
9.16000E-1	2.00002E+0	9.58127E-8
9.16500E-1	2.00000E+0	8.03909E-8
9.17000E-1	1.99995E+0	7.67904E-8
9.17500E-1	2.00008E+0	6.72638E-8
9.18000E-1	1.99998E+0	6.34581E-8
9.18500E-1	2.00001E+0	6.05292E-8
9.19000E-1	2.00001E+0	5.65556E-8
9.19500E-1	1.99997E+0	5.28742E-8
9.20000E-1	1.99999E+0	5.27748E-8
9.20500E-1	2.00003E+0	4.85151E-8
9.21000E-1	1.99999E+0	4.66993E-8
9.21500E-1	1.99999E+0	4.50639E-8
9.22000E-1	2.00002E+0	4.44358E-8
9.22500E-1	1.99998E+0	4.17867E-8
9.23000E-1	2.00004E+0	4.01513E-8
9.23500E-1	2.00002E+0	4.10654E-8
9.24000E-1	1.99991E+0	5.40122E-8
9.24500E-1	2.00001E+0	1.53166E-7
9.25000E-1	2.00001E+0	1.20046E-7
9.25500E-1	1.99996E+0	1.04494E-7
9.26000E-1	2.00004E+0	8.62674E-8
9.26500E-1	1.99998E+0	7.92654E-8
9.27000E-1	2.00004E+0	7.30842E-8
9.27500E-1	2.00003E+0	6.69591E-8
9.28000E-1	1.99996E+0	6.32653E-8
9.28500E-1	1.99996E+0	6.03737E-8
9.29000E-1	2.00002E+0	5.48952E-8
9.29500E-1	1.99998E+0	5.08159E-8
9.30000E-1	2.00000E+0	5.29240E-8
9.30500E-1	2.00004E+0	4.69978E-8
9.31000E-1	1.99992E+0	4.76818E-8
9.31500E-1	2.00007E+0	4.47592E-8
9.32000E-1	2.00000E+0	4.12893E-8
9.32500E-1	1.99994E+0	4.39819E-8
9.33000E-1	2.00009E+0	4.10094E-8
9.33500E-1	2.00000E+0	3.94797E-8
9.34000E-1	1.99991E+0	9.91707E-8
9.34500E-1	2.00003E+0	1.42128E-7
9.35000E-1	1.99998E+0	1.12901E-7
9.35500E-1	1.99998E+0	9.91520E-8
9.36000E-1	2.00004E+0	8.45013E-8
9.36500E-1	2.00001E+0	7.51861E-8
9.37000E-1	1.99997E+0	7.29350E-8
9.37500E-1	2.00004E+0	6.25315E-8
9.38000E-1	1.99999E+0	6.05976E-8
9.38500E-1	1.99997E+0	5.95715E-8
9.39000E-1	2.00006E+0	5.37324E-8
9.39500E-1	1.99999E+0	5.31479E-8
9.40000E-1	1.99996E+0	5.16119E-8
9.40500E-1	2.00004E+0	4.60837E-8
9.41000E-1	1.99999E+0	4.43363E-8
9.41500E-1	2.00002E+0	4.63262E-8
9.42000E-1	2.00001E+0	4.21785E-8
9.42500E-1	1.99997E+0	4.15380E-8
9.43000E-1	2.00003E+0	3.99336E-8
9.43500E-1	1.99999E+0	4.15940E-8
9.44000E-1	1.99987E+0	1.38328E-7
9.44500E-1	2.00004E+0	1.28876E-7
9.45000E-1	2.00003E+0	1.06372E-7
9.45500E-1	1.99996E+0	9.24983E-8
9.46000E-1	2.00007E+0	8.04842E-8
9.46500E-1	1.99999E+0	7.49809E-8
9.47000E-1	2.00002E+0	6.86194E-8
9.47500E-1	2.00004E+0	6.47204E-8
9.48000E-1	1.99994E+0	5.84398E-8
9.48500E-1	2.00001E+0	5.75505E-8
9.49000E-1	2.00003E+0	5.37510E-8
9.49500E-1	1.99993E+0	5.16368E-8
9.50000E-1	1.99999E+0	4.94790E-8
9.50500E-1	2.00003E+0	4.54805E-8
9.51000E-1	1.99995E+0	4.65128E-8
9.51500E-1	2.00004E+0	4.44171E-8
9.52000E-1	1.99996E+0	4.07856E-8
9.52500E-1	2.00003E+0	4.12146E-8
9.53000E-1	2.00003E+0	3.93180E-8
9.53500E-1	1.99991E+0	6.21771E-8
9.54000E-1	2.00005E+0	1.49403E-7
9.54500E-1	2.00003E+0	1.21122E-7
9.55000E-1	1.99997E+0	1.00570E-7
9.55500E-1	2.00002E+0	9.01477E-8
9.56000E-1	2.00005E+0	7.75242E-8
9.56500E-1	1.99997E+0	7.23194E-8
9.57000E-1	2.00001E+0	6.61942E-8
9.57500E-1	2.00001E+0	6.15428E-8
9.58000E-1	1.99998E+0	5.80791E-8
9.58500E-1	2.00001E+0	5.71339E-8
9.59000E-1	2.00005E+0	5.14689E-8
9.59500E-1	1.99998E+0	4.93546E-8
9.60000E-1	1.99998E+0	5.03122E-8
9.60500E-1	2.00004E+0	4.50639E-8
9.61000E-1	1.99996E+0	4.43425E-8
9.61500E-1	1.99999E+0	4.36958E-8
9.62000E-1	2.00001E+0	4.22718E-8
9.62500E-1	1.99999E+0	4.04311E-8
9.63000E-1	2.00000E+0	4.01078E-8
9.63500E-1	1.99993E+0	1.06166E-7
9.64000E-1	2.00002E+0	1.36624E-7
9.64500E-1	2.00003E+0	1.13890E-7
9.65000E-1	2.00004E+0	9.46561E-8
9.65500E-1	1.99998E+0	8.50921E-8
9.66000E-1	1.99996E+0	7.91472E-8
9.66500E-1	2.00005E+0	6.66917E-8
9.67000E-1	1.99997E+0	6.51744E-8
9.67500E-1	2.00003E+0	6.01561E-8
9.68000E-1	1.99998E+0	5.59648E-8
9.68500E-1	1.99999E+0	5.38195E-8
9.69000E-1	1.99999E+0	5.28680E-8
9.69500E-1	2.00002E+0	4.91245E-8
9.70000E-1	2.00000E+0	4.86706E-8
9.70500E-1	2.00001E+0	4.63262E-8
9.71000E-1	1.99997E+0	4.32108E-8
9.71500E-1	1.99998E+0	4.49271E-8
9.72000E-1	2.00003E+0	4.13017E-8
9.72500E-1	1.99997E+0	3.83790E-8
9.73000E-1	1.99999E+0	4.06861E-8
9.73500E-1	2.00000E+0	1.44111E-7
9.74000E-1	1.99997E+0	1.26470E-7
9.74500E-1	2.00002E+0	1.05408E-7
9.75000E-1	2.00007E+0	9.24485E-8
9.75500E-1	1.99999E+0	8.09319E-8
9.76000E-1	1.99997E+0	7.69024E-8
9.76500E-1	2.00004E+0	6.51868E-8
9.77000E-1	2.00001E+0	6.42416E-8
9.77500E-1	1.99998E+0	5.86139E-8
9.78000E-1	2.00007E+0	5.45719E-8
9.78500E-1	1.99995E+0	5.46341E-8
9.79000E-1	2.00003E+0	5.16492E-8
9.79500E-1	2.00003E+0	4.58287E-8
9.80000E-1	2.00004E+0	4.68175E-8
9.80500E-1	2.00000E+0	4.57479E-8
9.81000E-1	2.00001E+0	4.23961E-8
9.81500E-1	2.00004E+0	4.27941E-8
9.82000E-1	1.99995E+0	4.24086E-8
9.82500E-1	2.00001E+0	4.07047E-8
9.83000E-1	1.99991E+0	6.94216E-8
9.83500E-1	2.00005E+0	1.47948E-7
9.84000E-1	2.00002E+0	1.19101E-7
9.84500E-1	1.99999E+0	1.02883E-7
9.85000E-1	2.00002E+0	8.75546E-8
9.85500E-1	2.00002E+0	7.75615E-8
9.86000E-1	1.99994E+0	7.33889E-8
9.86500E-1	2.00007E+0	6.56345E-8
9.87000E-1	1.99998E+0	6.30663E-8
9.87500E-1	1.99996E+0	5.94534E-8
9.88000E-1	2.00003E+0	5.48579E-8
9.88500E-1	2.00001E+0	5.02438E-8
9.89000E-1	1.99998E+0	5.23768E-8
9.89500E-1	2.00003E+0	4.78746E-8
9.90000E-1	1.99998E+0	4.66620E-8
9.90500E-1	1.99999E+0	4.42928E-8
9.91000E-1	2.00001E+0	4.17992E-8
9.91500E-1	1.99996E+0	4.30429E-8
9.92000E-1	1.99999E+0	4.33787E-8
9.92500E-1	2.00000E+0	3.89511E-8
9.93000E-1	1.99990E+0	1.11601E-7
9.93500E-1	2.00009E+0	1.36792E-7
9.94000E-1	1.99998E+0	1.12055E-7
9.94500E-1	2.00001E+0	9.67828E-8
9.95000E-1	2.00003E+0	8.41407E-8
9.95500E-1	1.99999E+0	7.44399E-8
9.96000E-1	2.00003E+0	7.05160E-8
9.96500E-1	2.00005E+0	6.39929E-8
9.97000E-1	1.99998E+0	6.03426E-8
9.97500E-1	1.99994E+0	5.90243E-8
9.98000E-1	2.00007E+0	5.44537E-8
9.98500E-1	2.00001E+0	5.10771E-8
9.99000E-1	1.99992E+0	5.22586E-8
9.99500E-1	2.00004E+0	4.54929E-8
1.00000E+0	2.00001E+0	4.66496E-8
1.00050E+0	1.99996E+0	4.58039E-8
1.00100E+0	2.00002E+0	4.17619E-8
1.00150E+0	1.99997E+0	4.31859E-8
1.00200E+0	1.99996E+0	4.16997E-8
1.00250E+0	2.00001E+0	4.28190E-8
1.00300E+0	1.99995E+0	1.46394E-7
1.00350E+0	2.00000E+0	1.28124E-7
1.00400E+0	2.00003E+0	1.04344E-7
1.00450E+0	1.99998E+0	8.99549E-8
1.00500E+0	1.99997E+0	8.38297E-8
1.00550E+0	2.00004E+0	7.11068E-8
1.00600E+0	1.99997E+0	6.77861E-8
1.00650E+0	2.00002E+0	6.57713E-8
1.00700E+0	2.00002E+0	5.72520E-8
1.00750E+0	1.99994E+0	5.78117E-8
1.00800E+0	2.00003E+0	5.28245E-8
1.00850E+0	2.00001E+0	5.11580E-8
1.00900E+0	1.99994E+0	4.85213E-8
1.00950E+0	2.00009E+0	4.69294E-8
1.01000E+0	1.99998E+0	4.65501E-8
1.01050E+0	1.99996E+0	4.42057E-8
1.01100E+0	2.00006E+0	4.27755E-8
1.01150E+0	1.99999E+0	3.99585E-8
1.01200E+0	1.99994E+0	4.21163E-8
1.01250E+0	1.99996E+0	7.53415E-8
1.01300E+0	2.00003E+0	1.47519E-7
1.01350E+0	2.00004E+0	1.17988E-7
1.01400E+0	2.00000E+0	9.82690E-8
1.01450E+0	2.00001E+0	8.88294E-8
1.01500E+0	2.00001E+0	7.89047E-8
1.01550E+0	2.00000E+0	7.20520E-8
1.01600E+0	1.99999E+0	6.56159E-8
1.01650E+0	1.99998E+0	6.35824E-8
1.01700E+0	2.00002E+0	5.67919E-8
1.01750E+0	1.99998E+0	5.64125E-8
1.01800E+0	1.99994E+0	5.42299E-8
1.01850E+0	2.00001E+0	4.88633E-8
1.01900E+0	1.99997E+0	5.06480E-8
1.01950E+0	1.99996E+0	4.70538E-8
1.02000E+0	2.00002E+0	4.38886E-8
1.02050E+0	2.00004E+0	4.17681E-8
1.02100E+0	2.00001E+0	4.47529E-8
1.02150E+0	2.00001E+0	3.86899E-8
1.02200E+0	2.00000E+0	3.91439E-8
1.02250E+0	1.99994E+0	1.22596E-7
1.02300E+0	2.00001E+0	1.31979E-7
1.02350E+0	1.99999E+0	1.12683E-7
1.02400E+0	2.00005E+0	9.54707E-8
1.02450E+0	2.00001E+0	8.22627E-8
1.02500E+0	1.99998E+0	7.64422E-8
1.02550E+0	2.00004E+0	6.91480E-8
1.02600E+0	2.00002E+0	6.45649E-8
1.02650E+0	1.99999E+0	6.13127E-8
1.02700E+0	2.00005E+0	5.69473E-8
1.02750E+0	1.99998E+0	5.58218E-8
1.02800E+0	2.00002E+0	5.08346E-8
1.02850E+0	2.00003E+0	5.17549E-8
1.02900E+0	1.99999E+0	4.69667E-8
1.02950E+0	1.99994E+0	4.55178E-8
1.03000E+0	2.00004E+0	4.60277E-8
1.03050E+0	1.99998E+0	4.35466E-8
1.03100E+0	1.99997E+0	4.26387E-8
1.03150E+0	2.00004E+0	4.01762E-8
1.03200E+0	1.99995E+0	4.53437E-8
1.03250E+0	1.99996E+0	1.51872E-7
1.03300E+0	2.00003E+0	1.25711E-7
1.03350E+0	1.99996E+0	1.04587E-7
1.03400E+0	1.99998E+0	9.36114E-8
1.03450E+0	2.00004E+0	7.83637E-8
1.03500E+0	1.99999E+0	7.37247E-8
1.03550E+0	2.00001E+0	6.98879E-8
1.03600E+0	2.00003E+0	6.22703E-8
1.03650E+0	1.99998E+0	5.74262E-8
1.03700E+0	1.99997E+0	5.85330E-8
1.03750E+0	2.00003E+0	5.23146E-8
1.03800E+0	2.00001E+0	5.16990E-8
1.03850E+0	1.99998E+0	5.10274E-8
1.03900E+0	2.00000E+0	4.44855E-8
1.03950E+0	1.99997E+0	4.57728E-8
1.04000E+0	2.00003E+0	4.35714E-8
1.04050E+0	2.00002E+0	4.26262E-8
1.04100E+0	1.99996E+0	4.17059E-8
1.04150E+0	2.00006E+0	4.00642E-8
1.04200E+0	1.99990E+0	8.54403E-8
1.04250E+0	2.00004E+0	1.44217E-7
1.04300E+0	2.00006E+0	1.16358E-7
1.04350E+0	2.00001E+0	9.90339E-8
1.04400E+0	1.99999E+0	8.73369E-8
1.04450E+0	2.00001E+0	7.87182E-8
1.04500E+0	1.99998E+0	7.08145E-8
1.04550E+0	1.99996E+0	6.60076E-8
1.04600E+0	2.00009E+0	6.29171E-8
1.04650E+0	2.00001E+0	5.57410E-8
1.04700E+0	1.99998E+0	5.75505E-8
1.04750E+0	2.00004E+0	5.09838E-8
1.04800E+0	1.99998E+0	5.03620E-8
1.04850E+0	1.99998E+0	5.08595E-8
1.04900E+0	2.00004E+0	4.55676E-8
1.04950E+0	1.99995E+0	4.44855E-8
1.05000E+0	2.00004E+0	4.31735E-8
1.05050E+0	2.00004E+0	4.11400E-8
1.05100E+0	1.99998E+0	4.16126E-8
1.05150E+0	2.00002E+0	4.14447E-8
1.05200E+0	1.99996E+0	1.23964E-7
1.05250E+0	1.99995E+0	1.34740E-7
1.05300E+0	2.00001E+0	1.10028E-7
1.05350E+0	2.00004E+0	9.33626E-8
1.05400E+0	1.99998E+0	8.12180E-8
1.05450E+0	2.00003E+0	7.65044E-8
1.05500E+0	2.00000E+0	6.81157E-8
1.05550E+0	1.99995E+0	6.57838E-8
1.05600E+0	2.00008E+0	5.82470E-8
1.05650E+0	1.99999E+0	5.68354E-8
1.05700E+0	1.99999E+0	5.36951E-8
1.05750E+0	2.00001E+0	5.45221E-8
1.05800E+0	2.00001E+0	4.86519E-8
1.05850E+0	1.99993E+0	4.75139E-8
1.05900E+0	2.00006E+0	4.58474E-8
1.05950E+0	2.00001E+0	4.35777E-8
1.06000E+0	1.99996E+0	4.42057E-8
1.06050E+0	2.00003E+0	4.04498E-8
1.06100E+0	1.99999E+0	4.02694E-8
1.06150E+0	1.99993E+0	5.10336E-8
1.06200E+0	2.00001E+0	1.49963E-7
1.06250E+0	2.00003E+0	1.22453E-7
1.06300E+0	1.99999E+0	1.06664E-7
1.06350E+0	2.00001E+0	8.90843E-8
1.06400E+0	1.99999E+0	8.01049E-8
1.06450E+0	2.00001E+0	7.45083E-8
1.06500E+0	2.00001E+0	6.70461E-8
1.06550E+0	1.99994E+0	6.25937E-8
1.06600E+0	2.00001E+0	5.94720E-8
1.06650E+0	2.00003E+0	5.52621E-8
1.06700E+0	1.99998E+0	5.33158E-8
1.06750E+0	2.00000E+0	5.16181E-8
1.06800E+0	1.99998E+0	4.77565E-8
1.06850E+0	1.99997E+0	4.76445E-8
1.06900E+0	2.00006E+0	4.40751E-8
1.06950E+0	1.99999E+0	4.34533E-8
1.07000E+0	1.99999E+0	4.25081E-8
1.07050E+0	2.00004E+0	4.19173E-8
1.07100E+0	1.99998E+0	3.77758E-8
1.07150E+0	1.99986E+0	9.58625E-8
1.07200E+0	2.00005E+0	1.41587E-7
1.07250E+0	2.00002E+0	1.15420E-7
1.07300E+0	1.99994E+0	9.91458E-8
1.07350E+0	2.00004E+0	8.48185E-8
1.07400E+0	1.99996E+0	7.74993E-8
1.07450E+0	2.00001E+0	7.02051E-8
1.07500E+0	2.00007E+0	6.71580E-8
1.07550E+0	2.00000E+0	6.10142E-8
1.07600E+0	1.99998E+0	5.76500E-8
1.07650E+0	2.00004E+0	5.37137E-8
1.07700E+0	2.00001E+0	5.17860E-8
1.07750E+0	1.99999E+0	5.13569E-8
1.07800E+0	2.00004E+0	4.84343E-8
1.07850E+0	1.99998E+0	4.53934E-8
1.07900E+0	1.99999E+0	4.69543E-8
1.07950E+0	2.00002E+0	4.03130E-8
1.08000E+0	2.00003E+0	4.35590E-8
1.08050E+0	1.99994E+0	4.20852E-8
1.08100E+0	2.00004E+0	4.04062E-8
1.08150E+0	1.99990E+0	1.31706E-7
1.08200E+0	1.99996E+0	1.32582E-7
1.08250E+0	2.00008E+0	1.06707E-7
1.08300E+0	1.99996E+0	9.34870E-8
1.08350E+0	1.99996E+0	8.48123E-8
1.08400E+0	2.00005E+0	7.32957E-8
1.08450E+0	2.00002E+0	6.95522E-8
1.08500E+0	1.99997E+0	6.38871E-8
1.08550E+0	2.00004E+0	6.04235E-8
1.08600E+0	1.99997E+0	5.73764E-8
1.08650E+0	1.99999E+0	5.58405E-8
1.08700E+0	2.00003E+0	5.03371E-8
1.08750E+0	1.99999E+0	4.77005E-8
1.08800E+0	2.00001E+0	4.92551E-8
1.08850E+0	2.00000E+0	4.61210E-8
1.08900E+0	1.99999E+0	4.29372E-8
1.08950E+0	2.00002E+0	4.38077E-8
1.09000E+0	2.00003E+0	4.20603E-8
1.09050E+0	1.99997E+0	4.14012E-8
1.09100E+0	1.99994E+0	5.48952E-8
1.09150E+0	2.00000E+0	1.52786E-7
1.09200E+0	1.99995E+0	1.22334E-7
1.09250E+0	2.00004E+0	1.02330E-7
1.09300E+0	1.99998E+0	9.01353E-8
1.09350E+0	1.99992E+0	8.09071E-8
1.09400E+0	2.00008E+0	7.19463E-8
1.09450E+0	1.99998E+0	6.58646E-8
1.09500E+0	1.99996E+0	6.45836E-8
1.09550E+0	2.00002E+0	5.96710E-8
1.09600E+0	2.00003E+0	5.32287E-8
1.09650E+0	1.99998E+0	5.32722E-8
1.09700E+0	2.00008E+0	5.18793E-8
1.09750E+0	2.00002E+0	4.63635E-8
1.09800E+0	1.99995E+0	4.85835E-8
1.09850E+0	2.00006E+0	4.36274E-8
1.09900E+0	2.00001E+0	4.50576E-8
1.09950E+0	2.00002E+0	4.15256E-8
1.10000E+0	2.00003E+0	4.15131E-8
1.10050E+0	1.99997E+0	3.97782E-8
1.10100E+0	1.99993E+0	1.01770E-7
1.10150E+0	2.00004E+0	1.40754E-7
1.10200E+0	2.00004E+0	1.11614E-7
1.10250E+0	1.99995E+0	9.99231E-8
1.10300E+0	2.00006E+0	8.48807E-8
1.10350E+0	2.00002E+0	7.81772E-8
1.10400E+0	1.99995E+0	7.01802E-8
1.10450E+0	2.00001E+0	6.50749E-8
1.10500E+0	2.00002E+0	6.24693E-8
1.10550E+0	1.99995E+0	5.77433E-8
1.10600E+0	2.00006E+0	5.49015E-8
1.10650E+0	2.00000E+0	4.99391E-8
1.10700E+0	1.99996E+0	5.13756E-8
1.10750E+0	2.00007E+0	4.68299E-8
1.10800E+0	1.99996E+0	4.59842E-8
1.10850E+0	1.99998E+0	4.69045E-8
1.10900E+0	2.00004E+0	4.13763E-8
1.10950E+0	1.99997E+0	4.16064E-8
1.11000E+0	1.99995E+0	4.25081E-8
1.11050E+0	2.00003E+0	4.14945E-8
1.11100E+0	1.99993E+0	1.37364E-7
1.11150E+0	2.00002E+0	1.29996E-7
1.11200E+0	2.00007E+0	1.07267E-7
1.11250E+0	1.99999E+0	9.23117E-8
1.11300E+0	1.99997E+0	8.34069E-8
1.11350E+0	2.00005E+0	7.31651E-8
1.11400E+0	1.99999E+0	7.01989E-8
1.11450E+0	1.99999E+0	6.42478E-8
1.11500E+0	2.00003E+0	6.03053E-8
1.11550E+0	2.00000E+0	5.62944E-8
1.11600E+0	1.99997E+0	5.39749E-8
1.11650E+0	2.00004E+0	5.02998E-8
1.11700E+0	2.00000E+0	5.02874E-8
1.11750E+0	1.99995E+0	4.86768E-8
1.11800E+0	2.00003E+0	4.28812E-8
1.11850E+0	2.00002E+0	4.34471E-8
1.11900E+0	1.99996E+0	4.55427E-8
1.11950E+0	2.00002E+0	4.10592E-8
1.12000E+0	1.99997E+0	4.02881E-8
1.12050E+0	1.99987E+0	6.32218E-8
1.12100E+0	2.00006E+0	1.49652E-7
1.12150E+0	2.00001E+0	1.21215E-7
1.12200E+0	1.99996E+0	1.02081E-7
1.12250E+0	2.00004E+0	8.87548E-8
1.12300E+0	1.99999E+0	7.75988E-8
1.12350E+0	1.99999E+0	7.40108E-8
1.12400E+0	2.00005E+0	6.41297E-8
1.12450E+0	1.99999E+0	6.31534E-8
1.12500E+0	2.00001E+0	5.94347E-8
1.12550E+0	2.00002E+0	5.53989E-8
1.12600E+0	2.00003E+0	5.31043E-8
1.12650E+0	2.00002E+0	4.98459E-8
1.12700E+0	1.99998E+0	5.17363E-8
1.12750E+0	1.99998E+0	4.41622E-8
1.12800E+0	1.99997E+0	4.79679E-8
1.12850E+0	2.00002E+0	4.37455E-8
1.12900E+0	1.99998E+0	4.00518E-8
1.12950E+0	2.00002E+0	4.15940E-8
1.13000E+0	1.99999E+0	4.25081E-8
1.13050E+0	1.99989E+0	1.05700E-7
1.13100E+0	2.00003E+0	1.39050E-7
1.13150E+0	1.99999E+0	1.14941E-7
1.13200E+0	2.00004E+0	9.42270E-8
1.13250E+0	1.99994E+0	8.67773E-8
1.13300E+0	2.00004E+0	7.66972E-8
1.13350E+0	2.00000E+0	6.93532E-8
1.13400E+0	1.99998E+0	6.62253E-8
1.13450E+0	2.00000E+0	6.17853E-8
1.13500E+0	1.99999E+0	5.72085E-8
1.13550E+0	1.99997E+0	5.52994E-8
1.13600E+0	2.00003E+0	5.21467E-8
1.13650E+0	2.00000E+0	4.95909E-8
1.13700E+0	1.99999E+0	4.74269E-8
1.13750E+0	2.00002E+0	4.59842E-8
1.13800E+0	2.00000E+0	4.42617E-8
1.13850E+0	2.00000E+0	4.44918E-8
1.13900E+0	1.99998E+0	4.30553E-8
1.13950E+0	2.00004E+0	4.01326E-8
1.14000E+0	1.99996E+0	4.16935E-8
1.14050E+0	1.99994E+0	1.45741E-7
1.14100E+0	2.00002E+0	1.27589E-7
1.14150E+0	1.99999E+0	1.08660E-7
1.14200E+0	2.00003E+0	9.30828E-8
1.14250E+0	1.99999E+0	8.37986E-8
1.14300E+0	1.99999E+0	7.26116E-8
1.14350E+0	2.00002E+0	7.01118E-8
1.14400E+0	1.99999E+0	6.36073E-8
1.14450E+0	2.00000E+0	5.95467E-8
1.14500E+0	2.00000E+0	5.93539E-8
1.14550E+0	2.00002E+0	5.12264E-8
1.14600E+0	1.99996E+0	5.20969E-8
1.14650E+0	2.00006E+0	4.91307E-8
1.14700E+0	2.00005E+0	4.73958E-8
1.14750E+0	1.99999E+0	4.41746E-8
1.14800E+0	2.00003E+0	4.46783E-8
1.14850E+0	2.00001E+0	4.46224E-8
1.14900E+0	1.99998E+0	3.92620E-8
1.14950E+0	1.99997E+0	4.24770E-8
1.15000E+0	1.99994E+0	7.06466E-8
1.15050E+0	1.99996E+0	1.49621E-7
1.15100E+0	2.00003E+0	1.19499E-7
1.15150E+0	2.00004E+0	1.01092E-7
1.15200E+0	1.99996E+0	8.75919E-8
1.15250E+0	2.00002E+0	8.10874E-8
1.15300E+0	2.00001E+0	6.94091E-8
1.15350E+0	1.99997E+0	6.83520E-8
1.15400E+0	2.00005E+0	6.10204E-8
1.15450E+0	2.00001E+0	5.80978E-8
1.15500E+0	1.99998E+0	5.75132E-8
1.15550E+0	2.00003E+0	5.32163E-8
1.15600E+0	1.99998E+0	4.82477E-8
1.15650E+0	1.99999E+0	5.06480E-8
1.15700E+0	2.00002E+0	4.45415E-8
1.15750E+0	2.00004E+0	4.48711E-8
1.15800E+0	1.99996E+0	4.64195E-8
1.15850E+0	2.00001E+0	4.15691E-8
1.15900E+0	1.99999E+0	4.13266E-8
1.15950E+0	1.99995E+0	4.05928E-8
1.16000E+0	1.99999E+0	1.14020E-7
1.16050E+0	1.99999E+0	1.34970E-7
1.16100E+0	1.99998E+0	1.13013E-7
1.16150E+0	2.00005E+0	9.69880E-8
1.16200E+0	1.99997E+0	8.33074E-8
1.16250E+0	2.00000E+0	7.65604E-8
1.16300E+0	2.00004E+0	7.13058E-8
1.16350E+0	1.99999E+0	6.34208E-8
1.16400E+0	1.99997E+0	6.17977E-8
1.16450E+0	2.00007E+0	5.87383E-8
1.16500E+0	1.99995E+0	5.56166E-8
1.16550E+0	1.99996E+0	5.39314E-8
1.16600E+0	2.00001E+0	4.72341E-8
1.16650E+0	1.99997E+0	4.84716E-8
1.16700E+0	1.99999E+0	4.62765E-8
1.16750E+0	2.00001E+0	4.43425E-8
1.16800E+0	2.00002E+0	4.39694E-8
1.16850E+0	1.99995E+0	4.34408E-8
1.16900E+0	2.00005E+0	3.95667E-8
1.16950E+0	1.99995E+0	4.32729E-8
1.17000E+0	2.00000E+0	1.48035E-7
1.17050E+0	2.00000E+0	1.26320E-7
1.17100E+0	2.00000E+0	1.04357E-7
1.17150E+0	2.00004E+0	9.32383E-8
1.17200E+0	2.00002E+0	8.05775E-8
1.17250E+0	1.99997E+0	7.27173E-8
1.17300E+0	2.00001E+0	6.98817E-8
1.17350E+0	2.00002E+0	6.24258E-8
1.17400E+0	1.99997E+0	5.98700E-8
1.17450E+0	2.00003E+0	5.40371E-8
1.17500E+0	2.00005E+0	5.56104E-8
1.17550E+0	1.99995E+0	5.15000E-8
1.17600E+0	2.00004E+0	4.81047E-8
1.17650E+0	1.99999E+0	4.64755E-8
1.17700E+0	1.99998E+0	4.60837E-8
1.17750E+0	2.00006E+0	4.36212E-8
1.17800E+0	1.99997E+0	4.30366E-8
1.17850E+0	1.99997E+0	4.17370E-8
1.17900E+0	2.00001E+0	4.08540E-8
1.17950E+0	1.99990E+0	7.94022E-8
1.18000E+0	2.00001E+0	1.44074E-7
1.18050E+0	2.00003E+0	1.19244E-7
1.18100E+0	1.99999E+0	1.00669E-7
1.18150E+0	1.99998E+0	8.65037E-8
1.18200E+0	2.00007E+0	7.78849E-8
1.18250E+0	1.99999E+0	7.28417E-8
1.18300E+0	1.99996E+0	6.68409E-8
1.18350E+0	2.00005E+0	6.16050E-8
1.18400E+0	1.99998E+0	5.63068E-8
1.18450E+0	2.00000E+0	5.63255E-8
1.18500E+0	2.00003E+0	5.25882E-8
1.18550E+0	1.99996E+0	4.92364E-8
1.18600E+0	2.00003E+0	4.72714E-8
1.18650E+0	2.00003E+0	4.69605E-8
1.18700E+0	1.99996E+0	4.51820E-8
1.18750E+0	2.00002E+0	4.41311E-8
1.18800E+0	2.00004E+0	3.95978E-8
1.18850E+0	1.99999E+0	4.10654E-8
1.18900E+0	1.99998E+0	4.23402E-8
1.18950E+0	1.99996E+0	1.21980E-7
1.19000E+0	2.00000E+0	1.31867E-7
1.19050E+0	2.00003E+0	1.13311E-7
1.19100E+0	2.00006E+0	9.28838E-8
1.19150E+0	1.99998E+0	8.45573E-8
1.19200E+0	1.99996E+0	7.81834E-8
1.19250E+0	2.00004E+0	6.84950E-8
1.19300E+0	1.99998E+0	6.30601E-8
1.19350E+0	1.99999E+0	6.12194E-8
1.19400E+0	2.00003E+0	5.73391E-8
1.19450E+0	1.99997E+0	5.42547E-8
1.19500E+0	1.99998E+0	5.26690E-8
1.19550E+0	2.00004E+0	4.96593E-8
1.19600E+0	1.99998E+0	4.59034E-8
1.19650E+0	1.99998E+0	4.81980E-8
1.19700E+0	2.00001E+0	4.45788E-8
1.19750E+0	1.99999E+0	4.31548E-8
1.19800E+0	2.00001E+0	4.24335E-8
1.19850E+0	2.00001E+0	3.74587E-8
1.19900E+0	1.99993E+0	4.68797E-8
1.19950E+0	2.00001E+0	1.51667E-7
1.20000E+0	2.00003E+0	1.23702E-7
1.20050E+0	1.99995E+0	1.06546E-7
1.20100E+0	2.00004E+0	9.12732E-8
1.20150E+0	2.00001E+0	8.02292E-8
1.20200E+0	1.99995E+0	7.32894E-8
1.20250E+0	2.00003E+0	6.87686E-8
1.20300E+0	2.00001E+0	6.26186E-8
1.20350E+0	1.99995E+0	5.96213E-8
1.20400E+0	1.99999E+0	5.72085E-8
1.20450E+0	2.00000E+0	5.28494E-8
1.20500E+0	1.99997E+0	5.09838E-8
1.20550E+0	1.99998E+0	4.89566E-8
1.20600E+0	2.00001E+0	4.65625E-8
1.20650E+0	2.00002E+0	4.47716E-8
1.20700E+0	2.00002E+0	4.64319E-8
1.20750E+0	2.00002E+0	4.00580E-8
1.20800E+0	1.99996E+0	4.40503E-8
1.20850E+0	2.00003E+0	3.96849E-8
1.20900E+0	1.99989E+0	8.61865E-8
1.20950E+0	1.99999E+0	1.45679E-7
1.21000E+0	2.00006E+0	1.14275E-7
1.21050E+0	2.00000E+0	1.00302E-7
1.21100E+0	1.99997E+0	8.70074E-8
1.21150E+0	2.00006E+0	7.51488E-8
1.21200E+0	2.00002E+0	7.27920E-8
1.21250E+0	1.99999E+0	6.64554E-8
1.21300E+0	2.00002E+0	6.23263E-8
1.21350E+0	1.99997E+0	5.80169E-8
1.21400E+0	1.99996E+0	5.45035E-8
1.21450E+0	2.00004E+0	5.36142E-8
1.21500E+0	1.99996E+0	4.81296E-8
1.21550E+0	2.00007E+0	4.78622E-8
1.21600E+0	2.00001E+0	4.83348E-8
1.21650E+0	1.99996E+0	4.46783E-8
1.21700E+0	1.99999E+0	4.46099E-8
1.21750E+0	2.00001E+0	4.05430E-8
1.21800E+0	1.99999E+0	4.19919E-8
1.21850E+0	1.99998E+0	4.10094E-8
1.21900E+0	1.99994E+0	1.27421E-7
1.21950E+0	2.00003E+0	1.34373E-7
1.22000E+0	1.99996E+0	1.12292E-7
1.22050E+0	2.00003E+0	9.16899E-8
1.22100E+0	2.00001E+0	8.38360E-8
1.22150E+0	2.00001E+0	7.69583E-8
1.22200E+0	2.00005E+0	6.94713E-8
1.22250E+0	1.99998E+0	6.31223E-8
1.22300E+0	2.00001E+0	5.99819E-8
1.22350E+0	2.00003E+0	5.78179E-8
1.22400E+0	2.00000E+0	5.56539E-8
1.22450E+0	1.99998E+0	5.32349E-8
1.22500E+0	2.00003E+0	4.89504E-8
1.22550E+0	1.99996E+0	4.58350E-8
1.22600E+0	2.00000E+0	4.55862E-8
1.22650E+0	2.00005E+0	4.54494E-8
1.22700E+0	1.99993E+0	4.22593E-8
1.22750E+0	2.00000E+0	4.14634E-8
1.22800E+0	2.00006E+0	4.01078E-8
1.22850E+0	1.99990E+0	5.17301E-8
1.22900E+0	1.99998E+0	1.53215E-7
1.22950E+0	2.00005E+0	1.20761E-7
1.23000E+0	1.99997E+0	1.05209E-7
1.23050E+0	2.00002E+0	8.95942E-8
1.23100E+0	2.00003E+0	7.92156E-8
1.23150E+0	2.00000E+0	7.30967E-8
1.23200E+0	2.00003E+0	6.96890E-8
1.23250E+0	2.00003E+0	6.22330E-8
1.23300E+0	1.99994E+0	6.06971E-8
1.23350E+0	2.00003E+0	5.33531E-8
1.23400E+0	2.00001E+0	5.46030E-8
1.23450E+0	1.99997E+0	5.17238E-8
1.23500E+0	2.00000E+0	4.75948E-8
1.23550E+0	2.00001E+0	4.86457E-8
1.23600E+0	1.99996E+0	4.44793E-8
1.23650E+0	2.00004E+0	4.32045E-8
1.23700E+0	2.00001E+0	4.20106E-8
1.23750E+0	2.00000E+0	4.10094E-8
1.23800E+0	2.00005E+0	4.28252E-8
1.23850E+0	1.99987E+0	9.56137E-8
1.23900E+0	2.00003E+0	1.39740E-7
1.23950E+0	2.00008E+0	1.17242E-7
1.24000E+0	2.00001E+0	9.64408E-8
1.24050E+0	1.99998E+0	8.87610E-8
1.24100E+0	2.00004E+0	7.83015E-8
1.24150E+0	1.99997E+0	6.96579E-8
1.24200E+0	2.00000E+0	6.75249E-8
1.24250E+0	2.00004E+0	6.25999E-8
1.24300E+0	1.99999E+0	5.62322E-8
1.24350E+0	1.99996E+0	5.79920E-8
1.24400E+0	2.00006E+0	5.07475E-8
1.24450E+0	1.99999E+0	4.96966E-8
1.24500E+0	1.99999E+0	4.96406E-8
1.24550E+0	2.00000E+0	4.89753E-8
1.24600E+0	1.99998E+0	4.16437E-8
1.24650E+0	2.00003E+0	4.46161E-8
1.24700E+0	2.00002E+0	4.21163E-8
1.24750E+0	1.99998E+0	4.00020E-8
1.24800E+0	1.99997E+0	4.31859E-8
1.24850E+0	1.99996E+0	1.36251E-7
1.24900E+0	1.99995E+0	1.29859E-7
1.24950E+0	2.00005E+0	1.08542E-7
1.25000E+0	2.00001E+0	9.64470E-8
1.25050E+0	2.00000E+0	8.19518E-8
1.25100E+0	1.99996E+0	7.77294E-8
1.25150E+0	2.00007E+0	6.78172E-8
1.25200E+0	1.99998E+0	6.36073E-8
1.25250E+0	2.00000E+0	6.16858E-8
1.25300E+0	2.00006E+0	5.69100E-8
1.25350E+0	1.99995E+0	5.38505E-8
1.25400E+0	2.00003E+0	5.23332E-8
1.25450E+0	2.00004E+0	4.95971E-8
1.25500E+0	2.00002E+0	4.66123E-8
1.25550E+0	1.99992E+0	4.79803E-8
1.25600E+0	2.00006E+0	4.39383E-8
1.25650E+0	2.00000E+0	4.05804E-8
1.25700E+0	1.99996E+0	4.46659E-8
1.25750E+0	2.00004E+0	3.96662E-8
1.25800E+0	1.99990E+0	5.69909E-8
1.25850E+0	1.99997E+0	1.53912E-7
1.25900E+0	2.00006E+0	1.20711E-7
1.25950E+0	1.99997E+0	1.03088E-7
1.26000E+0	2.00003E+0	8.86739E-8
1.26050E+0	2.00003E+0	8.10314E-8
1.26100E+0	2.00001E+0	7.43031E-8
1.26150E+0	1.99996E+0	6.68658E-8
1.26200E+0	2.00003E+0	6.37876E-8
1.26250E+0	1.99999E+0	5.95218E-8
1.26300E+0	1.99998E+0	5.66426E-8
1.26350E+0	2.00005E+0	5.15746E-8
1.26400E+0	1.99999E+0	5.09341E-8
1.26450E+0	2.00004E+0	4.72217E-8
1.26500E+0	2.00002E+0	4.88198E-8
1.26550E+0	1.99996E+0	4.52753E-8
1.26600E+0	2.00003E+0	4.27257E-8
1.26650E+0	2.00001E+0	4.19919E-8
1.26700E+0	1.99995E+0	4.28501E-8
1.26750E+0	2.00003E+0	3.92745E-8
1.26800E+0	1.99992E+0	1.02641E-7
1.26850E+0	2.00001E+0	1.39628E-7
1.26900E+0	2.00002E+0	1.18162E-7
1.26950E+0	2.00003E+0	9.51909E-8
1.27000E+0	1.99997E+0	8.73494E-8
1.27050E+0	2.00003E+0	7.77294E-8
1.27100E+0	2.00000E+0	7.17224E-8
1.27150E+0	1.99999E+0	6.54355E-8
1.27200E+0	2.00004E+0	6.08152E-8
1.27250E+0	2.00001E+0	5.95653E-8
1.27300E+0	1.99995E+0	5.49761E-8
1.27350E+0	2.00003E+0	5.15497E-8
1.27400E+0	2.00000E+0	5.13507E-8
1.27450E+0	1.99996E+0	4.82415E-8
1.27500E+0	2.00004E+0	4.74953E-8
1.27550E+0	1.99997E+0	4.40129E-8
1.27600E+0	2.00003E+0	4.35714E-8
1.27650E+0	2.00001E+0	4.29682E-8
1.27700E+0	1.99996E+0	4.09162E-8
1.27750E+0	1.99998E+0	4.27382E-8
1.27800E+0	1.99996E+0	1.38751E-7
1.27850E+0	2.00005E+0	1.30872E-7
1.27900E+0	2.00001E+0	1.06938E-7
1.27950E+0	2.00002E+0	9.65465E-8
1.28000E+0	1.99998E+0	8.13050E-8
1.28050E+0	2.00002E+0	7.52607E-8
1.28100E+0	2.00003E+0	6.94402E-8
1.28150E+0	1.99999E+0	6.32591E-8
1.28200E+0	1.99999E+0	6.22890E-8
1.28250E+0	2.00003E+0	5.61016E-8
1.28300E+0	1.99999E+0	5.26753E-8
1.28350E+0	2.00002E+0	5.09341E-8
1.28400E+0	2.00004E+0	5.16865E-8
1.28450E+0	1.99999E+0	4.80798E-8
1.28500E+0	1.99997E+0	4.60153E-8
1.28550E+0	2.00005E+0	4.43052E-8
1.28600E+0	1.99999E+0	4.29993E-8
1.28650E+0	1.99996E+0	4.28003E-8
1.28700E+0	2.00004E+0	3.97720E-8
1.28750E+0	1.99989E+0	6.57527E-8
1.28800E+0	2.00001E+0	1.49658E-7
1.28850E+0	2.00002E+0	1.22527E-7
1.28900E+0	2.00000E+0	9.92080E-8
1.28950E+0	1.99998E+0	8.99798E-8
1.29000E+0	2.00008E+0	8.02230E-8
1.29050E+0	1.99997E+0	7.07274E-8
1.29100E+0	1.99999E+0	6.96703E-8
1.29150E+0	2.00004E+0	5.92544E-8
1.29200E+0	1.99999E+0	5.86823E-8
1.29250E+0	1.99999E+0	5.76873E-8
1.29300E+0	2.00006E+0	4.98956E-8
1.29350E+0	1.99999E+0	5.23457E-8
1.29400E+0	1.99998E+0	4.89628E-8
1.29450E+0	2.00000E+0	4.73833E-8
1.29500E+0	1.99995E+0	4.59158E-8
1.29550E+0	2.00005E+0	4.16126E-8
1.29600E+0	2.00000E+0	4.36958E-8
1.29650E+0	1.99997E+0	4.19982E-8
1.29700E+0	2.00005E+0	3.92247E-8
1.29750E+0	1.99992E+0	1.09344E-7
1.29800E+0	2.00007E+0	1.36233E-7
1.29850E+0	2.00001E+0	1.14157E-7
1.29900E+0	2.00000E+0	9.79643E-8
1.29950E+0	1.99999E+0	8.53595E-8
1.30000E+0	2.00002E+0	7.74558E-8
1.30050E+0	1.99994E+0	7.01678E-8
1.30100E+0	2.00001E+0	6.59144E-8
1.30150E+0	2.00003E+0	5.85393E-8
1.30200E+0	1.99999E+0	5.90305E-8
1.30250E+0	2.00002E+0	5.31105E-8
1.30300E+0	2.00004E+0	5.34650E-8
1.30350E+0	1.99998E+0	4.87017E-8
1.30400E+0	2.00000E+0	5.11704E-8
1.30450E+0	1.99998E+0	4.35092E-8
1.30500E+0	1.99996E+0	4.65874E-8
1.30550E+0	2.00006E+0	4.09659E-8
1.30600E+0	1.99997E+0	4.34160E-8
1.30650E+0	2.00001E+0	4.01326E-8
1.30700E+0	2.00003E+0	4.22904E-8
1.30750E+0	1.99994E+0	1.46282E-7
1.30800E+0	2.00008E+0	1.28914E-7
1.30850E+0	2.00001E+0	1.09369E-7
1.30900E+0	1.99999E+0	9.21376E-8
1.30950E+0	1.99999E+0	8.16719E-8
1.31000E+0	2.00003E+0	7.55716E-8
1.31050E+0	1.99995E+0	6.80100E-8
1.31100E+0	2.00001E+0	6.28860E-8
1.31150E+0	2.00006E+0	6.07468E-8
1.31200E+0	1.99999E+0	5.62011E-8
1.31250E+0	1.99998E+0	5.50880E-8
1.31300E+0	2.00000E+0	4.90375E-8
1.31350E+0	2.00001E+0	4.92427E-8
1.31400E+0	2.00001E+0	4.95660E-8
1.31450E+0	2.00001E+0	4.28750E-8
1.31500E+0	1.99997E+0	4.54121E-8
1.31550E+0	2.00004E+0	4.20230E-8
1.31600E+0	2.00002E+0	4.15069E-8
1.31650E+0	1.99996E+0	4.13888E-8
1.31700E+0	1.99993E+0	7.21017E-8
1.31750E+0	2.00003E+0	1.46288E-7
1.31800E+0	1.99997E+0	1.22098E-7
1.31850E+0	2.00006E+0	1.00458E-7
1.31900E+0	2.00000E+0	8.78406E-8
1.31950E+0	2.00000E+0	7.85130E-8
1.32000E+0	2.00003E+0	7.16602E-8
1.32050E+0	2.00000E+0	6.62439E-8
1.32100E+0	2.00001E+0	6.34518E-8
1.32150E+0	2.00002E+0	5.77122E-8
1.32200E+0	1.99998E+0	5.51502E-8
1.32250E+0	2.00001E+0	5.48020E-8
1.32300E+0	2.00001E+0	4.95909E-8
1.32350E+0	1.99995E+0	4.84094E-8
1.32400E+0	2.00004E+0	4.61397E-8
1.32450E+0	2.00001E+0	4.37704E-8
1.32500E+0	2.00001E+0	4.50328E-8
1.32550E+0	1.99995E+0	4.36523E-8
1.32600E+0	2.00006E+0	3.81925E-8
1.32650E+0	1.99999E+0	4.18054E-8
1.32700E+0	1.99993E+0	1.17005E-7
1.32750E+0	2.00000E+0	1.35872E-7
1.32800E+0	1.99998E+0	1.11558E-7
1.32850E+0	2.00001E+0	9.77591E-8
1.32900E+0	2.00001E+0	8.26482E-8
1.32950E+0	2.00001E+0	7.70019E-8
1.33000E+0	1.99999E+0	7.08580E-8
1.33050E+0	2.00002E+0	6.40675E-8
1.33100E+0	1.99996E+0	6.18475E-8
1.33150E+0	2.00001E+0	5.94845E-8
1.33200E+0	2.00003E+0	5.21280E-8
1.33250E+0	1.99999E+0	5.30359E-8
1.33300E+0	2.00002E+0	4.95225E-8
1.33350E+0	2.00003E+0	4.77378E-8
1.33400E+0	2.00001E+0	4.58412E-8
1.33450E+0	2.00002E+0	4.76445E-8
1.33500E+0	2.00003E+0	4.21536E-8
1.33550E+0	1.99996E+0	4.31486E-8
1.33600E+0	2.00001E+0	4.15318E-8
1.33650E+0	2.00000E+0	4.27008E-8
1.33700E+0	1.99993E+0	1.51002E-7
1.33750E+0	2.00006E+0	1.26718E-7
1.33800E+0	2.00000E+0	1.04979E-7
1.33850E+0	2.00001E+0	9.24983E-8
1.33900E+0	2.00006E+0	8.26047E-8
1.33950E+0	2.00000E+0	7.26676E-8
1.34000E+0	1.99995E+0	7.21453E-8
1.34050E+0	2.00003E+0	6.27429E-8
1.34100E+0	1.99997E+0	5.89435E-8
1.34150E+0	1.99996E+0	5.93290E-8
1.34200E+0	2.00005E+0	5.23706E-8
1.34250E+0	1.99994E+0	5.12885E-8
1.34300E+0	2.00000E+0	4.99454E-8
1.34350E+0	2.00005E+0	4.63946E-8
1.34400E+0	1.99997E+0	4.47405E-8
1.34450E+0	1.99996E+0	4.75077E-8
1.34500E+0	2.00004E+0	4.11835E-8
1.34550E+0	1.99997E+0	4.09410E-8
1.34600E+0	2.00001E+0	4.11773E-8
1.34650E+0	1.99995E+0	8.07640E-8
1.34700E+0	2.00002E+0	1.44833E-7
1.34750E+0	2.00003E+0	1.18423E-7
1.34800E+0	2.00003E+0	1.02006E-7
1.34850E+0	1.99999E+0	8.73245E-8
1.34900E+0	1.99998E+0	7.97193E-8
1.34950E+0	2.00004E+0	7.13369E-8
1.35000E+0	1.99997E+0	6.52739E-8
1.35050E+0	2.00004E+0	6.26310E-8
1.35100E+0	2.00001E+0	5.96213E-8
1.35150E+0	1.99997E+0	5.47087E-8
1.35200E+0	2.00002E+0	5.37013E-8
1.35250E+0	2.00002E+0	4.83907E-8
1.35300E+0	1.99998E+0	4.95598E-8
1.35350E+0	2.00001E+0	4.59531E-8
1.35400E+0	2.00002E+0	4.41311E-8
1.35450E+0	2.00000E+0	4.32854E-8
1.35500E+0	2.00003E+0	4.40005E-8
1.35550E+0	2.00000E+0	4.20230E-8
1.35600E+0	1.99996E+0	4.05804E-8
1.35650E+0	1.99996E+0	1.23858E-7
1.35700E+0	2.00002E+0	1.34722E-7
1.35750E+0	1.99996E+0	1.12229E-7
1.35800E+0	2.00008E+0	9.48364E-8
1.35850E+0	1.99992E+0	8.40598E-8
1.35900E+0	2.00001E+0	7.85814E-8
1.35950E+0	2.00003E+0	6.86629E-8
1.36000E+0	1.99998E+0	6.58086E-8
1.36050E+0	1.99996E+0	6.36322E-8
1.36100E+0	2.00003E+0	5.76811E-8
1.36150E+0	2.00001E+0	5.42299E-8
1.36200E+0	1.99997E+0	5.41366E-8
1.36250E+0	2.00006E+0	4.88260E-8
1.36300E+0	1.99996E+0	4.98770E-8
1.36350E+0	1.99998E+0	4.81420E-8
1.36400E+0	2.00002E+0	4.48524E-8
1.36450E+0	2.00000E+0	4.45229E-8
1.36500E+0	1.99998E+0	4.39383E-8
1.36550E+0	2.00007E+0	4.06488E-8
1.36600E+0	1.99988E+0	4.94417E-8
1.36650E+0	1.99996E+0	1.53719E-7
1.36700E+0	2.00005E+0	1.24697E-7
1.36750E+0	2.00002E+0	1.07112E-7
1.36800E+0	1.99993E+0	9.40653E-8
1.36850E+0	2.00006E+0	8.12926E-8
1.36900E+0	1.99999E+0	7.42036E-8
1.36950E+0	1.99997E+0	6.99626E-8
1.37000E+0	2.00003E+0	6.29544E-8
1.37050E+0	1.99998E+0	6.03426E-8
1.37100E+0	2.00004E+0	5.50880E-8
1.37150E+0	2.00001E+0	5.67235E-8
1.37200E+0	2.00001E+0	5.11580E-8
1.37250E+0	2.00000E+0	5.00262E-8
1.37300E+0	2.00003E+0	4.78870E-8
1.37350E+0	1.99997E+0	4.64257E-8
1.37400E+0	1.99996E+0	4.74766E-8
1.37450E+0	2.00002E+0	4.15691E-8
1.37500E+0	1.99998E+0	4.26014E-8
1.37550E+0	2.00001E+0	4.19173E-8
1.37600E+0	1.99996E+0	9.01850E-8
1.37650E+0	1.99998E+0	1.43850E-7
1.37700E+0	2.00006E+0	1.18790E-7
1.37750E+0	2.00002E+0	9.91831E-8
1.37800E+0	2.00001E+0	8.83257E-8
1.37850E+0	1.99998E+0	8.04220E-8
1.37900E+0	2.00009E+0	7.24686E-8
1.37950E+0	1.99998E+0	6.76493E-8
1.38000E+0	1.99996E+0	6.43846E-8
1.38050E+0	2.00005E+0	5.95715E-8
1.38100E+0	2.00000E+0	5.39127E-8
1.38150E+0	1.99998E+0	5.61078E-8
1.38200E+0	2.00001E+0	5.26753E-8
1.38250E+0	2.00000E+0	4.91556E-8
1.38300E+0	1.99998E+0	4.86581E-8
1.38350E+0	2.00002E+0	4.63324E-8
1.38400E+0	1.99997E+0	4.29620E-8
1.38450E+0	1.99998E+0	4.31299E-8
1.38500E+0	2.00003E+0	4.14572E-8
1.38550E+0	2.00002E+0	4.18116E-8
1.38600E+0	1.99988E+0	1.34243E-7
1.38650E+0	2.00007E+0	1.35169E-7
1.38700E+0	2.00000E+0	1.09039E-7
1.38750E+0	1.99997E+0	9.88287E-8
1.38800E+0	2.00006E+0	8.38297E-8
1.38850E+0	1.99998E+0	7.70081E-8
1.38900E+0	2.00003E+0	7.05969E-8
1.38950E+0	2.00001E+0	6.79540E-8
1.39000E+0	1.99995E+0	6.17542E-8
1.39050E+0	2.00002E+0	5.92979E-8
1.39100E+0	2.00001E+0	5.61825E-8
1.39150E+0	1.99996E+0	5.18606E-8
1.39200E+0	1.99998E+0	5.13756E-8
1.39250E+0	2.00006E+0	4.85027E-8
1.39300E+0	1.99996E+0	4.65501E-8
1.39350E+0	2.00000E+0	4.63697E-8
1.39400E+0	2.00006E+0	4.25454E-8
1.39450E+0	2.00000E+0	4.23961E-8
1.39500E+0	1.99995E+0	4.51634E-8
1.39550E+0	1.99997E+0	5.19290E-8
1.39600E+0	2.00000E+0	1.54913E-7
1.39650E+0	2.00006E+0	1.26066E-7
1.39700E+0	1.99998E+0	1.04388E-7
1.39750E+0	2.00002E+0	9.31201E-8
1.39800E+0	1.99995E+0	8.26047E-8
1.39850E+0	2.00005E+0	7.34636E-8
1.39900E+0	2.00001E+0	7.08021E-8
1.39950E+0	1.99997E+0	6.52552E-8
1.40000E+0	2.00006E+0	5.90056E-8
1.40050E+0	1.99999E+0	5.79983E-8
1.40100E+0	1.99996E+0	5.62198E-8
1.40150E+0	2.00003E+0	5.19166E-8
1.40200E+0	1.99999E+0	4.92302E-8
1.40250E+0	1.99997E+0	5.12388E-8
1.40300E+0	2.00002E+0	4.72590E-8
1.40350E+0	2.00001E+0	4.31175E-8
1.40400E+0	2.00001E+0	4.50576E-8
1.40450E+0	2.00004E+0	4.17930E-8
1.40500E+0	1.99996E+0	4.18551E-8
1.40550E+0	1.99990E+0	1.01527E-7
1.40600E+0	2.00003E+0	1.42470E-7
1.40650E+0	2.00000E+0	1.18784E-7
1.40700E+0	1.99998E+0	1.02149E-7
1.40750E+0	2.00002E+0	8.59627E-8
1.40800E+0	1.99995E+0	8.02914E-8
1.40850E+0	2.00007E+0	7.23007E-8
1.40900E+0	2.00001E+0	6.72389E-8
1.40950E+0	1.99998E+0	6.50127E-8
1.41000E+0	2.00000E+0	5.87507E-8
1.41050E+0	2.00002E+0	5.73764E-8
1.41100E+0	2.00000E+0	5.39189E-8
1.41150E+0	1.99997E+0	5.27685E-8
1.41200E+0	2.00003E+0	4.78995E-8
1.41250E+0	2.00000E+0	4.80487E-8
1.41300E+0	2.00000E+0	4.78062E-8
1.41350E+0	2.00001E+0	4.49830E-8
1.41400E+0	1.99998E+0	4.18676E-8
1.41450E+0	1.99997E+0	4.53250E-8
1.41500E+0	2.00002E+0	4.15380E-8
1.41550E+0	1.99994E+0	1.37619E-7
1.41600E+0	1.99998E+0	1.34069E-7
1.41650E+0	2.00003E+0	1.11409E-7
1.41700E+0	1.99994E+0	9.47991E-8
1.41750E+0	2.00002E+0	8.63544E-8
1.41800E+0	2.00005E+0	7.49373E-8
1.41850E+0	1.99995E+0	7.14177E-8
1.41900E+0	1.99999E+0	6.84080E-8
1.41950E+0	2.00004E+0	6.11759E-8
1.42000E+0	1.99994E+0	5.82221E-8
1.42050E+0	2.00002E+0	5.54736E-8
1.42100E+0	2.00005E+0	5.28991E-8
1.42150E+0	1.99996E+0	5.06853E-8
1.42200E+0	1.99997E+0	5.06791E-8
1.42250E+0	2.00004E+0	4.53064E-8
1.42300E+0	1.99996E+0	4.58287E-8
1.42350E+0	2.00006E+0	4.43114E-8
1.42400E+0	2.00000E+0	4.49768E-8
1.42450E+0	1.99997E+0	4.01264E-8
1.42500E+0	1.99994E+0	6.25688E-8
1.42550E+0	2.00005E+0	1.54813E-7
1.42600E+0	1.99999E+0	1.22372E-7
1.42650E+0	1.99996E+0	1.07068E-7
1.42700E+0	2.00004E+0	8.90035E-8
1.42750E+0	2.00002E+0	8.22689E-8
1.42800E+0	2.00001E+0	7.43155E-8
1.42850E+0	2.00001E+0	7.14239E-8
1.42900E+0	2.00000E+0	6.38187E-8
1.42950E+0	1.99999E+0	5.99633E-8
1.43000E+0	2.00006E+0	5.72831E-8
1.43050E+0	1.99999E+0	5.40558E-8
1.43100E+0	2.00003E+0	5.34961E-8
1.43150E+0	2.00004E+0	5.15870E-8
1.43200E+0	1.99998E+0	4.90872E-8
1.43250E+0	1.99998E+0	4.79554E-8
1.43300E+0	2.00003E+0	4.51882E-8
1.43350E+0	1.99998E+0	4.27319E-8
1.43400E+0	1.99998E+0	4.40316E-8
1.43450E+0	2.00002E+0	4.23899E-8
1.43500E+0	1.99990E+0	1.05091E-7
1.43550E+0	2.00000E+0	1.42905E-7
1.43600E+0	2.00002E+0	1.15314E-7
1.43650E+0	1.99998E+0	1.01254E-7
1.43700E+0	1.99996E+0	8.86055E-8
1.43750E+0	2.00006E+0	7.89856E-8
1.43800E+0	1.99999E+0	7.21826E-8
1.43850E+0	1.99997E+0	6.77177E-8
1.43900E+0	2.00003E+0	6.31098E-8
1.43950E+0	1.99997E+0	5.93539E-8
1.44000E+0	1.99998E+0	5.89310E-8
1.44050E+0	2.00002E+0	5.24203E-8
1.44100E+0	2.00000E+0	5.33033E-8
1.44150E+0	1.99998E+0	5.07973E-8
1.44200E+0	2.00003E+0	4.64879E-8
1.44250E+0	1.99996E+0	4.88074E-8
1.44300E+0	1.99999E+0	4.48587E-8
1.44350E+0	2.00002E+0	4.34346E-8
1.44400E+0	2.00001E+0	4.23526E-8
1.44450E+0	2.00002E+0	4.49706E-8
1.44500E+0	1.99994E+0	1.44820E-7
1.44550E+0	1.99999E+0	1.31675E-7
1.44600E+0	2.00004E+0	1.10233E-7
1.44650E+0	1.99999E+0	9.60241E-8
1.44700E+0	1.99996E+0	8.53408E-8
1.44750E+0	2.00007E+0	7.61624E-8
1.44800E+0	1.99998E+0	6.99626E-8
1.44850E+0	1.99996E+0	6.78918E-8
1.44900E+0	2.00006E+0	6.18164E-8
1.44950E+0	2.00000E+0	5.78117E-8
1.45000E+0	1.99997E+0	5.74573E-8
1.45050E+0	2.00004E+0	5.30359E-8
1.45100E+0	1.99998E+0	4.93235E-8
1.45150E+0	1.99998E+0	5.20721E-8
1.45200E+0	2.00005E+0	4.56795E-8
1.45250E+0	1.99998E+0	4.72279E-8
1.45300E+0	1.99997E+0	4.65749E-8
1.45350E+0	1.99999E+0	4.23713E-8
1.45400E+0	1.99995E+0	4.29931E-8
1.45450E+0	1.99986E+0	7.31589E-8
1.45500E+0	2.00004E+0	1.51163E-7
1.45550E+0	2.00000E+0	1.23466E-7
1.45600E+0	2.00001E+0	1.05532E-7
1.45650E+0	2.00001E+0	9.05270E-8
1.45700E+0	2.00000E+0	8.16781E-8
1.45750E+0	1.99997E+0	7.59447E-8
1.45800E+0	2.00003E+0	6.96641E-8
1.45850E+0	1.99994E+0	6.54542E-8
1.45900E+0	2.00004E+0	5.97581E-8
1.45950E+0	2.00000E+0	5.84273E-8
1.46000E+0	2.00001E+0	5.46776E-8
1.46050E+0	1.99996E+0	5.50321E-8
1.46100E+0	2.00000E+0	4.90375E-8
1.46150E+0	1.99996E+0	4.93359E-8
1.46200E+0	2.00004E+0	4.56173E-8
1.46250E+0	1.99998E+0	4.69294E-8
1.46300E+0	1.99996E+0	4.51571E-8
1.46350E+0	2.00005E+0	4.09099E-8
1.46400E+0	2.00000E+0	4.18240E-8
1.46450E+0	1.99992E+0	1.17260E-7
1.46500E+0	2.00005E+0	1.39945E-7
1.46550E+0	2.00002E+0	1.15077E-7
1.46600E+0	2.00001E+0	1.00023E-7
1.46650E+0	2.00001E+0	8.74178E-8
1.46700E+0	1.99999E+0	7.84010E-8
1.46750E+0	1.99998E+0	7.67593E-8
1.46800E+0	2.00005E+0	6.45774E-8
1.46850E+0	1.99998E+0	6.42540E-8
1.46900E+0	2.00003E+0	6.00814E-8
1.46950E+0	2.00003E+0	5.71650E-8
1.47000E+0	1.99999E+0	5.33033E-8
1.47050E+0	2.00001E+0	5.16119E-8
1.47100E+0	2.00003E+0	5.05796E-8
1.47150E+0	1.99999E+0	4.79865E-8
1.47200E+0	1.99998E+0	4.75886E-8
1.47250E+0	1.99999E+0	4.45415E-8
1.47300E+0	1.99997E+0	4.29558E-8
1.47350E+0	2.00002E+0	4.41497E-8
1.47400E+0	2.00001E+0	4.31050E-8
1.47450E+0	1.99995E+0	1.50417E-7
1.47500E+0	1.99999E+0	1.30462E-7
1.47550E+0	2.00005E+0	1.10022E-7
1.47600E+0	1.99998E+0	9.33626E-8
1.47650E+0	1.99999E+0	8.62052E-8
1.47700E+0	2.00006E+0	7.54099E-8
1.47750E+0	1.99993E+0	7.14488E-8
1.47800E+0	2.00006E+0	6.42913E-8
1.47850E+0	2.00003E+0	6.18537E-8
1.47900E+0	1.99996E+0	5.90056E-8
1.47950E+0	2.00005E+0	5.60954E-8
1.48000E+0	1.99998E+0	5.40060E-8
1.48050E+0	1.99995E+0	5.08595E-8
1.48100E+0	2.00008E+0	4.86830E-8
1.48150E+0	1.99999E+0	4.81171E-8
1.48200E+0	1.99995E+0	4.77689E-8
1.48250E+0	2.00004E+0	4.27568E-8
1.48300E+0	1.99997E+0	4.27133E-8
1.48350E+0	1.99994E+0	4.45602E-8
1.48400E+0	1.99995E+0	7.79844E-8
1.48450E+0	1.99999E+0	1.49323E-7
1.48500E+0	1.99997E+0	1.22347E-7
1.48550E+0	2.00006E+0	1.02846E-7
1.48600E+0	2.00000E+0	8.83630E-8
1.48650E+0	2.00003E+0	8.22938E-8
1.48700E+0	2.00002E+0	7.30221E-8
1.48750E+0	1.99999E+0	6.97014E-8
1.48800E+0	1.99999E+0	6.58708E-8
1.48850E+0	2.00005E+0	6.02058E-8
1.48900E+0	1.99996E+0	5.63441E-8
1.48950E+0	2.00000E+0	5.60954E-8
1.49000E+0	2.00002E+0	5.26939E-8
1.49050E+0	1.99998E+0	4.77689E-8
1.49100E+0	1.99997E+0	5.07786E-8
1.49150E+0	2.00004E+0	4.67802E-8
1.49200E+0	1.99998E+0	4.58225E-8
1.49250E+0	1.99996E+0	4.57355E-8
1.49300E+0	2.00004E+0	4.06550E-8
1.49350E+0	1.99998E+0	4.19982E-8
1.49400E+0	1.99991E+0	1.23143E-7
1.49450E+0	2.00006E+0	1.35225E-7
1.49500E+0	2.00002E+0	1.13765E-7
1.49550E+0	1.99998E+0	1.00682E-7
1.49600E+0	2.00004E+0	8.56020E-8
1.49650E+0	1.99999E+0	8.00178E-8
1.49700E+0	1.99995E+0	7.19400E-8
1.49750E+0	2.00010E+0	6.57029E-8
1.49800E+0	1.99997E+0	6.37752E-8
1.49850E+0	1.99998E+0	6.14557E-8
1.49900E+0	2.00004E+0	5.39065E-8
1.49950E+0	2.00001E+0	5.31168E-8
1.50000E+0	2.00002E+0	5.29240E-8
1.50050E+0	2.00002E+0	4.94914E-8
1.50100E+0	1.99996E+0	4.85027E-8
1.50150E+0	1.99997E+0	4.74082E-8
1.50200E+0	2.00000E+0	4.52193E-8
1.50250E+0	1.99998E+0	4.25392E-8
1.50300E+0	2.00002E+0	4.30056E-8
1.50350E+0	1.99997E+0	4.80176E-8
1.50400E+0	1.99994E+0	1.51742E-7
1.50450E+0	2.00003E+0	1.30673E-7
1.50500E+0	2.00000E+0	1.08685E-7
1.50550E+0	1.99996E+0	9.32072E-8
1.50600E+0	2.00002E+0	8.54963E-8
1.50650E+0	2.00000E+0	7.42471E-8
1.50700E+0	1.99994E+0	7.21328E-8
1.50750E+0	2.00000E+0	6.62875E-8
1.50800E+0	2.00000E+0	6.05167E-8
1.50850E+0	1.99997E+0	5.87383E-8
1.50900E+0	1.99999E+0	5.77930E-8
1.50950E+0	2.00002E+0	5.01817E-8
1.51000E+0	1.99999E+0	5.06667E-8
1.51050E+0	2.00000E+0	5.15311E-8
1.51100E+0	2.00001E+0	4.53872E-8
1.51150E+0	1.99995E+0	4.77502E-8
1.51200E+0	2.00004E+0	4.49581E-8
1.51250E+0	1.99995E+0	4.09099E-8
1.51300E+0	2.00000E+0	4.34035E-8
1.51350E+0	1.99995E+0	8.61492E-8
1.51400E+0	2.00003E+0	1.45927E-7
1.51450E+0	1.99997E+0	1.22764E-7
1.51500E+0	2.00006E+0	1.00657E-7
1.51550E+0	1.99998E+0	8.88978E-8
1.51600E+0	2.00001E+0	8.16408E-8
1.51650E+0	2.00008E+0	7.23505E-8
1.51700E+0	1.99998E+0	6.94962E-8
1.51750E+0	1.99995E+0	6.45525E-8
1.51800E+0	2.00004E+0	6.05727E-8
1.51850E+0	2.00004E+0	5.58280E-8
1.51900E+0	1.99996E+0	5.47149E-8
1.51950E+0	2.00004E+0	5.35272E-8
1.52000E+0	1.99997E+0	5.04739E-8
1.52050E+0	1.99999E+0	4.96096E-8
1.52100E+0	2.00001E+0	4.64381E-8
1.52150E+0	1.99998E+0	4.27941E-8
1.52200E+0	1.99998E+0	4.73709E-8
1.52250E+0	2.00005E+0	4.10716E-8
1.52300E+0	2.00001E+0	4.18240E-8
1.52350E+0	1.99991E+0	1.31351E-7
1.52400E+0	2.00002E+0	1.34380E-7
1.52450E+0	1.99998E+0	1.14406E-7
1.52500E+0	1.99999E+0	9.74482E-8
1.52550E+0	2.00002E+0	8.54838E-8
1.52600E+0	1.99997E+0	8.02106E-8
1.52650E+0	2.00003E+0	7.32024E-8
1.52700E+0	1.99999E+0	6.45028E-8
1.52750E+0	1.99995E+0	6.61942E-8
1.52800E+0	2.00003E+0	5.61514E-8
1.52850E+0	2.00001E+0	5.74697E-8
1.52900E+0	1.99996E+0	5.57223E-8
1.52950E+0	2.00003E+0	4.89131E-8
1.53000E+0	1.99996E+0	4.98210E-8
1.53050E+0	2.00001E+0	4.82477E-8
1.53100E+0	2.00003E+0	4.54867E-8
1.53150E+0	1.99995E+0	4.59407E-8
1.53200E+0	2.00002E+0	4.33600E-8
1.53250E+0	2.00001E+0	4.09037E-8
1.53300E+0	1.99990E+0	5.17301E-8
1.53350E+0	2.00003E+0	1.55211E-7
1.53400E+0	2.00005E+0	1.26681E-7
1.53450E+0	1.99993E+0	1.07765E-7
1.53500E+0	2.00006E+0	9.39596E-8
1.53550E+0	2.00001E+0	8.23560E-8
1.53600E+0	1.99995E+0	7.59572E-8
1.53650E+0	2.00006E+0	7.02984E-8
1.53700E+0	1.99998E+0	6.45774E-8
1.53750E+0	1.99996E+0	6.09769E-8
1.53800E+0	2.00005E+0	5.82159E-8
1.53850E+0	1.99998E+0	5.40060E-8
1.53900E+0	2.00001E+0	5.44910E-8
1.53950E+0	2.00003E+0	5.20161E-8
1.54000E+0	1.99995E+0	4.76259E-8
1.54050E+0	1.99999E+0	4.95225E-8
1.54100E+0	2.00004E+0	4.35341E-8
1.54150E+0	1.99997E+0	4.55240E-8
1.54200E+0	2.00001E+0	4.16064E-8
1.54250E+0	2.00003E+0	4.14882E-8
1.54300E+0	1.99988E+0	9.54769E-8
1.54350E+0	1.99998E+0	1.44491E-7
1.54400E+0	2.00009E+0	1.16446E-7
1.54450E+0	2.00000E+0	1.02013E-7
1.54500E+0	1.99997E+0	9.00482E-8
1.54550E+0	2.00009E+0	7.74247E-8
1.54600E+0	1.99999E+0	7.29599E-8
1.54650E+0	1.99998E+0	7.15483E-8
1.54700E+0	2.00004E+0	6.05603E-8
1.54750E+0	1.99999E+0	6.19656E-8
1.54800E+0	1.99999E+0	5.63317E-8
1.54850E+0	2.00002E+0	5.36453E-8
1.54900E+0	2.00003E+0	5.19912E-8
1.54950E+0	1.99997E+0	5.03869E-8
1.55000E+0	2.00001E+0	4.79244E-8
1.55050E+0	1.99998E+0	4.79492E-8
1.55100E+0	1.99997E+0	4.60899E-8
1.55150E+0	2.00002E+0	4.26138E-8
1.55200E+0	1.99994E+0	4.22345E-8
1.55250E+0	1.99999E+0	4.30180E-8
1.55300E+0	1.99996E+0	1.31861E-7
1.55350E+0	2.00003E+0	1.34100E-7
1.55400E+0	1.99998E+0	1.14232E-7
1.55450E+0	2.00004E+0	9.72367E-8
1.55500E+0	1.99997E+0	8.44205E-8
1.55550E+0	1.99999E+0	8.05153E-8
1.55600E+0	2.00001E+0	7.06404E-8
1.55650E+0	2.00000E+0	6.47577E-8
1.55700E+0	2.00000E+0	6.53236E-8
1.55750E+0	1.99999E+0	5.85206E-8
1.55800E+0	1.99998E+0	5.54736E-8
1.55850E+0	1.99999E+0	5.55668E-8
1.55900E+0	2.00002E+0	5.13010E-8
1.55950E+0	1.99999E+0	5.03806E-8
1.56000E+0	2.00000E+0	4.82912E-8
1.56050E+0	2.00002E+0	4.36647E-8
1.56100E+0	1.99998E+0	4.52131E-8
1.56150E+0	1.99999E+0	4.55738E-8
1.56200E+0	2.00000E+0	3.91999E-8
1.56250E+0	1.99993E+0	5.79050E-8
1.56300E+0	2.00005E+0	1.56536E-7
1.56350E+0	2.00000E+0	1.26339E-7
1.56400E+0	1.99997E+0	1.05949E-7
1.56450E+0	2.00006E+0	9.07758E-8
1.56500E+0	2.00003E+0	8.30462E-8
1.56550E+0	1.99997E+0	7.72941E-8
1.56600E+0	2.00004E+0	7.04974E-8
1.56650E+0	2.00003E+0	6.29419E-8
1.56700E+0	1.99998E+0	6.21149E-8
1.56750E+0	2.00003E+0	5.99757E-8
1.56800E+0	2.00000E+0	5.25509E-8
1.56850E+0	1.99999E+0	5.36764E-8
1.56900E+0	2.00008E+0	5.03682E-8
1.56950E+0	1.99998E+0	4.80736E-8
1.57000E+0	2.00001E+0	4.84280E-8
1.57050E+0	2.00005E+0	4.37145E-8
1.57100E+0	1.99998E+0	4.39134E-8
1.57150E+0	1.99996E+0	4.63449E-8
1.57200E+0	2.00001E+0	3.87521E-8
1.57250E+0	1.99990E+0	1.01534E-7
1.57300E+0	1.99997E+0	1.43944E-7
1.57350E+0	2.00008E+0	1.17210E-7
1.57400E+0	1.99996E+0	1.01316E-7
1.57450E+0	2.00001E+0	8.91341E-8
1.57500E+0	2.00005E+0	7.82767E-8
1.57550E+0	1.99995E+0	7.42222E-8
1.57600E+0	2.00003E+0	6.94340E-8
1.57650E+0	2.00001E+0	6.27803E-8
1.57700E+0	1.99996E+0	5.89621E-8
1.57750E+0	2.00004E+0	5.68789E-8
1.57800E+0	2.00002E+0	5.42112E-8
1.57850E+0	1.99995E+0	5.28494E-8
1.57900E+0	2.00003E+0	5.10647E-8
1.57950E+0	2.00000E+0	4.70102E-8
1.58000E+0	1.99996E+0	4.88820E-8
1.58050E+0	2.00004E+0	4.35777E-8
1.58100E+0	1.99998E+0	4.47156E-8
1.58150E+0	1.99994E+0	4.22842E-8
1.58200E+0	2.00003E+0	4.18178E-8
1.58250E+0	1.99991E+0	1.40878E-7
1.58300E+0	2.00003E+0	1.34927E-7
1.58350E+0	2.00005E+0	1.07622E-7
1.58400E+0	1.99999E+0	9.68139E-8
1.58450E+0	2.00002E+0	8.71380E-8
1.58500E+0	2.00004E+0	7.52794E-8
1.58550E+0	1.99998E+0	7.13866E-8
1.58600E+0	2.00000E+0	6.85448E-8
1.58650E+0	2.00003E+0	6.15428E-8
1.58700E+0	1.99997E+0	5.96088E-8
1.58750E+0	1.99999E+0	5.69100E-8
1.58800E+0	2.00006E+0	5.12512E-8
1.58850E+0	1.99999E+0	5.14627E-8
1.58900E+0	2.00001E+0	4.90188E-8
1.58950E+0	2.00003E+0	4.95038E-8
1.59000E+0	1.99999E+0	4.65501E-8
1.59050E+0	2.00001E+0	4.45415E-8
1.59100E+0	1.99998E+0	4.26014E-8
1.59150E+0	1.99999E+0	4.19360E-8
1.59200E+0	1.99993E+0	6.37814E-8
1.59250E+0	2.00006E+0	1.52270E-7
1.59300E+0	2.00001E+0	1.25692E-7
1.59350E+0	2.00005E+0	1.03138E-7
1.59400E+0	2.00001E+0	9.33937E-8
1.59450E+0	1.99998E+0	8.20450E-8
1.59500E+0	2.00005E+0	7.47197E-8
1.59550E+0	1.99999E+0	7.00185E-8
1.59600E+0	2.00002E+0	6.46582E-8
1.59650E+0	2.00000E+0	6.07530E-8
1.59700E+0	2.00000E+0	5.92730E-8
1.59750E+0	1.99997E+0	5.53243E-8
1.59800E+0	2.00006E+0	5.08097E-8
1.59850E+0	1.99993E+0	5.12823E-8
1.59900E+0	2.00004E+0	4.83410E-8
1.59950E+0	2.00003E+0	4.68548E-8
1.60000E+0	1.99993E+0	4.61023E-8
1.60050E+0	2.00003E+0	4.46099E-8
1.60100E+0	2.00001E+0	4.11214E-8
1.60150E+0	2.00001E+0	4.14882E-8
1.60200E+0	1.99993E+0	1.10868E-7
1.60250E+0	2.00003E+0	1.38154E-7
1.60300E+0	1.99998E+0	1.17546E-7
1.60350E+0	2.00006E+0	1.00153E-7
1.60400E+0	1.99998E+0	8.73432E-8
1.60450E+0	1.99998E+0	7.90477E-8
1.60500E+0	2.00006E+0	7.29599E-8
1.60550E+0	1.99999E+0	6.92661E-8
1.60600E+0	2.00001E+0	6.11759E-8
1.60650E+0	2.00001E+0	6.20962E-8
1.60700E+0	1.99997E+0	5.59586E-8
1.60750E+0	2.00002E+0	5.36205E-8
1.60800E+0	2.00000E+0	5.07227E-8
1.60850E+0	2.00005E+0	5.03744E-8
1.60900E+0	1.99998E+0	4.88882E-8
1.60950E+0	2.00001E+0	4.76321E-8
1.61000E+0	1.99992E+0	4.51882E-8
1.61050E+0	2.00005E+0	4.38513E-8
1.61100E+0	2.00001E+0	4.01202E-8
1.61150E+0	1.99993E+0	4.61707E-8
1.61200E+0	1.99996E+0	1.45591E-7
1.61250E+0	2.00004E+0	1.29274E-7
1.61300E+0	2.00001E+0	1.10700E-7
1.61350E+0	2.00005E+0	9.44073E-8
1.61400E+0	1.99996E+0	8.43521E-8
1.61450E+0	1.99999E+0	7.78787E-8
1.61500E+0	2.00003E+0	6.90609E-8
1.61550E+0	1.99999E+0	6.55475E-8
1.61600E+0	2.00003E+0	6.18475E-8
1.61650E+0	2.00002E+0	6.02991E-8
1.61700E+0	1.99995E+0	5.47771E-8
1.61750E+0	2.00000E+0	5.36453E-8
1.61800E+0	2.00006E+0	5.22524E-8
1.61850E+0	1.99996E+0	4.88758E-8
1.61900E+0	2.00001E+0	4.90188E-8
1.61950E+0	2.00000E+0	4.28377E-8
1.62000E+0	2.00000E+0	4.49768E-8
1.62050E+0	1.99996E+0	4.61023E-8
1.62100E+0	2.00004E+0	3.89449E-8
1.62150E+0	1.99991E+0	7.21577E-8
1.62200E+0	2.00004E+0	1.53010E-7
1.62250E+0	1.99999E+0	1.21545E-7
1.62300E+0	1.99999E+0	1.05924E-7
1.62350E+0	2.00003E+0	9.08131E-8
1.62400E+0	2.00001E+0	8.07454E-8
1.62450E+0	1.99999E+0	7.56836E-8
1.62500E+0	2.00007E+0	6.84764E-8
1.62550E+0	1.99998E+0	6.50873E-8
1.62600E+0	2.00000E+0	6.19967E-8
1.62650E+0	2.00002E+0	5.84895E-8
1.62700E+0	1.99999E+0	5.31914E-8
1.62750E+0	2.00000E+0	5.49015E-8
1.62800E+0	2.00006E+0	4.95474E-8
1.62850E+0	1.99994E+0	4.79990E-8
1.62900E+0	2.00002E+0	4.54308E-8
1.62950E+0	2.00002E+0	4.53437E-8
1.63000E+0	1.99997E+0	4.59842E-8
1.63050E+0	2.00003E+0	4.39134E-8
1.63100E+0	2.00001E+0	3.96351E-8
1.63150E+0	1.99991E+0	1.18143E-7
1.63200E+0	2.00001E+0	1.38938E-7
1.63250E+0	2.00003E+0	1.16595E-7
1.63300E+0	1.99996E+0	9.88784E-8
1.63350E+0	2.00006E+0	8.82697E-8
1.63400E+0	2.00001E+0	7.78040E-8
1.63450E+0	1.99998E+0	7.31464E-8
1.63500E+0	2.00006E+0	6.64367E-8
1.63550E+0	2.00001E+0	6.41048E-8
1.63600E+0	1.99995E+0	5.91798E-8
1.63650E+0	2.00002E+0	5.84273E-8
1.63700E+0	2.00001E+0	5.34712E-8
1.63750E+0	1.99997E+0	5.18606E-8
1.63800E+0	2.00004E+0	4.75139E-8
1.63850E+0	2.00001E+0	4.78497E-8
1.63900E+0	2.00001E+0	4.78373E-8
1.63950E+0	2.00003E+0	4.55427E-8
1.64000E+0	1.99997E+0	4.40751E-8
1.64050E+0	1.99999E+0	4.19235E-8
1.64100E+0	2.00004E+0	4.54992E-8
1.64150E+0	1.99993E+0	1.51487E-7
1.64200E+0	2.00002E+0	1.32166E-7
1.64250E+0	2.00006E+0	1.07112E-7
1.64300E+0	1.99999E+0	9.62915E-8
1.64350E+0	2.00000E+0	8.47687E-8
1.64400E+0	2.00003E+0	7.66474E-8
1.64450E+0	1.99998E+0	7.20582E-8
1.64500E+0	1.99997E+0	6.77364E-8
1.64550E+0	2.00001E+0	6.04172E-8
1.64600E+0	1.99995E+0	5.81724E-8
1.64650E+0	2.00001E+0	5.62571E-8
1.64700E+0	2.00006E+0	5.03682E-8
1.64750E+0	2.00001E+0	5.25260E-8
1.64800E+0	1.99997E+0	5.03122E-8
1.64850E+0	2.00000E+0	4.67926E-8
1.64900E+0	1.99996E+0	4.72217E-8
1.64950E+0	2.00001E+0	4.35279E-8
1.65000E+0	2.00002E+0	4.19049E-8
1.65050E+0	1.99995E+0	4.46908E-8
1.65100E+0	1.99994E+0	7.93898E-8
1.65150E+0	2.00005E+0	1.47774E-7
1.65200E+0	2.00000E+0	1.23112E-7
1.65250E+0	2.00007E+0	1.01322E-7
1.65300E+0	2.00001E+0	9.00482E-8
1.65350E+0	1.99996E+0	8.26669E-8
1.65400E+0	2.00006E+0	7.54721E-8
1.65450E+0	2.00000E+0	6.83396E-8
1.65500E+0	1.99998E+0	6.42043E-8
1.65550E+0	2.00008E+0	5.95591E-8
1.65600E+0	1.99997E+0	5.84273E-8
1.65650E+0	1.99994E+0	5.58280E-8
1.65700E+0	2.00004E+0	5.21218E-8
1.65750E+0	2.00000E+0	4.93484E-8
1.65800E+0	2.00000E+0	4.77751E-8
1.65850E+0	2.00004E+0	4.81109E-8
1.65900E+0	1.99997E+0	4.45291E-8
1.65950E+0	1.99995E+0	4.45788E-8
1.66000E+0	2.00007E+0	4.14572E-8
1.66050E+0	1.99998E+0	4.24335E-8
1.66100E+0	1.99987E+0	1.23883E-7
1.66150E+0	2.00007E+0	1.37010E-7
1.66200E+0	1.99998E+0	1.14866E-7
1.66250E+0	2.00001E+0	9.89282E-8
1.66300E+0	2.00003E+0	8.66343E-8
1.66350E+0	1.99998E+0	7.72071E-8
1.66400E+0	2.00001E+0	7.16105E-8
1.66450E+0	2.00006E+0	6.70586E-8
1.66500E+0	1.99999E+0	6.34954E-8
1.66550E+0	2.00001E+0	5.93477E-8
1.66600E+0	2.00003E+0	5.56601E-8
1.66650E+0	1.99997E+0	5.50694E-8
1.66700E+0	1.99997E+0	5.30421E-8
1.66750E+0	2.00003E+0	4.87763E-8
1.66800E+0	1.99997E+0	4.55862E-8
1.66850E+0	2.00000E+0	4.86270E-8
1.66900E+0	2.00002E+0	4.23713E-8
1.66950E+0	1.99999E+0	4.47654E-8
1.67000E+0	1.99998E+0	4.16126E-8
1.67050E+0	2.00002E+0	4.80114E-8
1.67100E+0	1.99995E+0	1.55908E-7
1.67150E+0	1.99999E+0	1.30630E-7
1.67200E+0	2.00006E+0	1.06627E-7
1.67250E+0	2.00000E+0	9.25604E-8
1.67300E+0	2.00002E+0	8.54590E-8
1.67350E+0	2.00003E+0	7.57084E-8
1.67400E+0	1.99999E+0	6.92723E-8
1.67450E+0	2.00003E+0	6.54169E-8
1.67500E+0	2.00000E+0	6.14371E-8
1.67550E+0	1.99999E+0	6.01436E-8
1.67600E+0	2.00002E+0	5.75070E-8
1.67650E+0	1.99999E+0	5.25198E-8
1.67700E+0	1.99996E+0	5.12264E-8
1.67750E+0	2.00003E+0	4.95101E-8
1.67800E+0	2.00000E+0	4.69854E-8
1.67850E+0	1.99995E+0	4.59718E-8
1.67900E+0	2.00005E+0	4.18427E-8
1.67950E+0	2.00003E+0	4.49395E-8
1.68000E+0	1.99996E+0	4.30304E-8
1.68050E+0	1.99994E+0	8.78717E-8
1.68100E+0	2.00001E+0	1.46387E-7
1.68150E+0	1.99998E+0	1.23112E-7
1.68200E+0	2.00001E+0	1.03014E-7
1.68250E+0	2.00002E+0	8.71877E-8
1.68300E+0	1.99999E+0	8.29529E-8
1.68350E+0	2.00003E+0	7.34014E-8
1.68400E+0	1.99998E+0	6.91417E-8
1.68450E+0	1.99999E+0	6.49567E-8
1.68500E+0	2.00005E+0	6.11572E-8
1.68550E+0	1.99998E+0	5.55295E-8
1.68600E+0	1.99995E+0	5.74137E-8
1.68650E+0	2.00006E+0	5.07973E-8
1.68700E+0	1.99998E+0	5.14005E-8
1.68750E+0	2.00001E+0	4.68672E-8
1.68800E+0	2.00003E+0	4.59718E-8
1.68850E+0	2.00002E+0	4.69107E-8
1.68900E+0	1.99999E+0	4.49519E-8
1.68950E+0	2.00001E+0	4.28874E-8
1.69000E+0	1.99995E+0	4.17121E-8
1.69050E+0	1.99992E+0	1.32315E-7
1.69100E+0	2.00004E+0	1.37029E-7
1.69150E+0	1.99993E+0	1.13629E-7
1.69200E+0	2.00004E+0	9.82628E-8
1.69250E+0	2.00003E+0	8.43583E-8
1.69300E+0	1.99993E+0	8.01235E-8
1.69350E+0	2.00002E+0	7.19649E-8
1.69400E+0	2.00003E+0	6.66108E-8
1.69450E+0	2.00000E+0	6.23450E-8
1.69500E+0	2.00006E+0	5.97146E-8
1.69550E+0	2.00002E+0	5.75941E-8
1.69600E+0	1.99994E+0	5.43916E-8
1.69650E+0	2.00004E+0	4.99889E-8
1.69700E+0	2.00000E+0	5.20285E-8
1.69750E+0	1.99997E+0	4.87887E-8
1.69800E+0	2.00003E+0	4.65003E-8
1.69850E+0	1.99997E+0	4.33662E-8
1.69900E+0	2.00005E+0	4.43550E-8
1.69950E+0	2.00003E+0	4.23464E-8
1.70000E+0	1.99993E+0	5.32163E-8
1.70050E+0	1.99996E+0	1.57506E-7
1.70100E+0	2.00006E+0	1.27347E-7
1.70150E+0	1.99998E+0	1.06384E-7
1.70200E+0	1.99996E+0	9.44571E-8
1.70250E+0	2.00002E+0	8.35499E-8
1.70300E+0	2.00000E+0	7.44647E-8
1.70350E+0	1.99999E+0	7.29847E-8
1.70400E+0	2.00002E+0	6.30290E-8
1.70450E+0	1.99994E+0	6.41918E-8
1.70500E+0	2.00004E+0	5.70531E-8
1.70550E+0	2.00000E+0	5.50258E-8
1.70600E+0	2.00003E+0	5.51315E-8
1.70650E+0	1.99999E+0	5.19228E-8
1.70700E+0	1.99999E+0	4.91556E-8
1.70750E+0	1.99995E+0	4.88260E-8
1.70800E+0	2.00003E+0	4.46286E-8
1.70850E+0	1.99998E+0	4.46534E-8
1.70900E+0	2.00000E+0	4.48587E-8
1.70950E+0	2.00001E+0	3.92745E-8
1.71000E+0	1.99985E+0	9.87105E-8
1.71050E+0	2.00006E+0	1.45977E-7
1.71100E+0	2.00004E+0	1.18093E-7
1.71150E+0	1.99998E+0	1.03063E-7
1.71200E+0	2.00004E+0	8.85682E-8
1.71250E+0	1.99995E+0	8.01360E-8
1.71300E+0	1.99998E+0	7.53664E-8
1.71350E+0	2.00006E+0	6.84701E-8
1.71400E+0	1.99998E+0	6.15801E-8
1.71450E+0	2.00004E+0	6.19159E-8
1.71500E+0	2.00005E+0	5.64996E-8
1.71550E+0	1.99996E+0	5.67359E-8
1.71600E+0	1.99996E+0	5.34526E-8
1.71650E+0	2.00007E+0	4.89877E-8
1.71700E+0	1.99993E+0	4.87452E-8
1.71750E+0	2.00003E+0	4.64071E-8
1.71800E+0	2.00006E+0	4.61770E-8
1.71850E+0	1.99996E+0	4.48276E-8
1.71900E+0	1.99998E+0	4.55178E-8
1.71950E+0	2.00002E+0	4.02197E-8
1.72000E+0	1.99989E+0	1.37203E-7
1.72050E+0	2.00005E+0	1.35213E-7
1.72100E+0	2.00003E+0	1.10631E-7
1.72150E+0	2.00000E+0	9.75103E-8
1.72200E+0	2.00004E+0	8.69763E-8
1.72250E+0	1.99999E+0	7.89856E-8
1.72300E+0	1.99999E+0	7.19338E-8
1.72350E+0	1.99998E+0	6.73819E-8
1.72400E+0	2.00000E+0	6.32466E-8
1.72450E+0	1.99996E+0	5.84398E-8
1.72500E+0	2.00004E+0	5.71588E-8
1.72550E+0	1.99998E+0	5.30608E-8
1.72600E+0	1.99997E+0	5.28183E-8
1.72650E+0	2.00006E+0	4.70662E-8
1.72700E+0	2.00001E+0	4.98832E-8
1.72750E+0	1.99995E+0	4.55613E-8
1.72800E+0	2.00006E+0	4.50328E-8
1.72850E+0	1.99997E+0	4.27817E-8
1.72900E+0	2.00001E+0	4.28003E-8
1.72950E+0	1.99994E+0	6.03737E-8
1.73000E+0	2.00005E+0	1.52562E-7
1.73050E+0	1.99998E+0	1.27639E-7
1.73100E+0	2.00002E+0	1.05986E-7
1.73150E+0	2.00001E+0	9.10183E-8
1.73200E+0	1.99996E+0	8.42775E-8
1.73250E+0	1.99999E+0	7.73750E-8
1.73300E+0	2.00003E+0	6.75560E-8
1.73350E+0	1.99995E+0	6.58957E-8
1.73400E+0	2.00008E+0	6.20340E-8
1.73450E+0	1.99996E+0	5.90181E-8
1.73500E+0	1.99996E+0	5.47584E-8
1.73550E+0	2.00006E+0	5.27437E-8
1.73600E+0	1.99997E+0	5.18233E-8
1.73650E+0	1.99998E+0	4.96096E-8
1.73700E+0	2.00001E+0	4.86954E-8
1.73750E+0	1.99998E+0	4.34222E-8
1.73800E+0	1.99998E+0	4.65003E-8
1.73850E+0	2.00004E+0	4.23340E-8
1.73900E+0	1.99999E+0	4.31486E-8
1.73950E+0	1.99986E+0	1.04307E-7
1.74000E+0	2.00008E+0	1.43421E-7
1.74050E+0	2.00001E+0	1.17602E-7
1.74100E+0	1.99996E+0	1.00937E-7
1.74150E+0	2.00003E+0	9.06452E-8
1.74200E+0	2.00001E+0	7.76921E-8
1.74250E+0	1.99998E+0	7.53913E-8
1.74300E+0	2.00003E+0	6.84577E-8
1.74350E+0	1.99999E+0	6.44157E-8
1.74400E+0	1.99996E+0	6.04048E-8
1.74450E+0	2.00004E+0	5.78925E-8
1.74500E+0	1.99996E+0	5.45781E-8
1.74550E+0	1.99999E+0	5.29364E-8
1.74600E+0	2.00003E+0	4.90126E-8
1.74650E+0	1.99996E+0	4.84902E-8
1.74700E+0	1.99996E+0	4.76072E-8
1.74750E+0	2.00006E+0	4.54432E-8
1.74800E+0	1.99998E+0	4.27755E-8
1.74850E+0	2.00001E+0	4.48711E-8
1.74900E+0	2.00001E+0	4.08851E-8
1.74950E+0	1.99991E+0	1.41991E-7
1.75000E+0	2.00004E+0	1.33951E-7
1.75050E+0	2.00004E+0	1.09170E-7
1.75100E+0	1.99998E+0	9.48053E-8
1.75150E+0	2.00005E+0	8.64353E-8
1.75200E+0	2.00001E+0	7.62805E-8
1.75250E+0	1.99994E+0	7.33330E-8
1.75300E+0	2.00008E+0	6.36011E-8
1.75350E+0	2.00004E+0	6.49505E-8
1.75400E+0	1.99997E+0	5.97954E-8
1.75450E+0	2.00001E+0	5.45097E-8
1.75500E+0	1.99998E+0	5.35458E-8
1.75550E+0	1.99995E+0	5.24887E-8
1.75600E+0	2.00000E+0	4.98334E-8
1.75650E+0	2.00003E+0	4.51136E-8
1.75700E+0	1.99998E+0	4.62205E-8
1.75750E+0	1.99997E+0	4.77751E-8
1.75800E+0	2.00002E+0	4.20852E-8
1.75850E+0	1.99998E+0	4.12644E-8
1.75900E+0	1.99991E+0	6.82401E-8
1.75950E+0	2.00008E+0	1.52911E-7
1.76000E+0	1.99996E+0	1.24331E-7
1.76050E+0	2.00004E+0	1.05657E-7
1.76100E+0	2.00004E+0	8.99736E-8
1.76150E+0	1.99998E+0	8.42215E-8
1.76200E+0	1.99999E+0	7.51799E-8
1.76250E+0	2.00003E+0	6.97760E-8
1.76300E+0	1.99995E+0	6.50002E-8
1.76350E+0	2.00004E+0	5.98949E-8
1.76400E+0	2.00003E+0	5.94036E-8
1.76450E+0	2.00000E+0	5.49512E-8
1.76500E+0	1.99998E+0	5.45097E-8
1.76550E+0	2.00002E+0	4.80860E-8
1.76600E+0	2.00002E+0	5.02563E-8
1.76650E+0	1.99996E+0	4.66744E-8
1.76700E+0	2.00004E+0	4.51323E-8
1.76750E+0	2.00001E+0	4.38326E-8
1.76800E+0	1.99997E+0	4.61707E-8
1.76850E+0	2.00003E+0	3.97968E-8
1.76900E+0	1.99992E+0	1.11713E-7
1.76950E+0	2.00004E+0	1.42488E-7
1.77000E+0	2.00005E+0	1.15121E-7
1.77050E+0	2.00000E+0	9.88535E-8
1.77100E+0	2.00001E+0	8.92398E-8
1.77150E+0	2.00001E+0	7.93835E-8
1.77200E+0	2.00001E+0	7.32894E-8
1.77250E+0	2.00000E+0	6.92661E-8
1.77300E+0	2.00000E+0	6.23512E-8
1.77350E+0	2.00003E+0	6.02618E-8
1.77400E+0	1.99996E+0	5.71401E-8
1.77450E+0	2.00009E+0	5.37759E-8
1.77500E+0	1.99999E+0	5.30484E-8
1.77550E+0	1.99996E+0	4.95412E-8
1.77600E+0	2.00005E+0	4.79181E-8
1.77650E+0	1.99996E+0	4.63449E-8
1.77700E+0	1.99999E+0	4.68112E-8
1.77750E+0	2.00006E+0	4.28377E-8
1.77800E+0	1.99998E+0	4.30553E-8
1.77850E+0	1.99991E+0	4.70849E-8
1.77900E+0	1.99999E+0	1.47731E-7
1.77950E+0	1.99998E+0	1.30860E-7
1.78000E+0	1.99996E+0	1.09257E-7
1.78050E+0	2.00008E+0	9.48115E-8
1.78100E+0	1.99998E+0	8.58445E-8
1.78150E+0	1.99995E+0	7.72568E-8
1.78200E+0	2.00006E+0	7.14923E-8
1.78250E+0	1.99997E+0	6.41918E-8
1.78300E+0	1.99998E+0	6.45276E-8
1.78350E+0	2.00006E+0	5.64561E-8
1.78400E+0	2.00001E+0	5.59213E-8
1.78450E+0	1.99996E+0	5.52994E-8
1.78500E+0	2.00007E+0	4.96096E-8
1.78550E+0	2.00000E+0	4.91556E-8
1.78600E+0	2.00003E+0	4.86146E-8
1.78650E+0	2.00003E+0	4.46659E-8
1.78700E+0	2.00001E+0	4.47654E-8
1.78750E+0	1.99998E+0	4.47343E-8
1.78800E+0	2.00004E+0	4.14261E-8
1.78850E+0	1.99989E+0	7.47508E-8
1.78900E+0	1.99996E+0	1.53850E-7
1.78950E+0	2.00008E+0	1.21060E-7
1.79000E+0	1.99995E+0	1.05911E-7
1.79050E+0	2.00002E+0	9.08877E-8
1.79100E+0	2.00002E+0	8.22813E-8
1.79150E+0	2.00000E+0	7.30283E-8
1.79200E+0	1.99999E+0	7.22323E-8
1.79250E+0	1.99997E+0	6.29046E-8
1.79300E+0	2.00000E+0	6.22019E-8
1.79350E+0	2.00001E+0	5.94223E-8
1.79400E+0	2.00002E+0	5.46465E-8
1.79450E+0	1.99996E+0	5.27437E-8
1.79500E+0	2.00004E+0	4.90872E-8
1.79550E+0	2.00001E+0	5.01070E-8
1.79600E+0	1.99996E+0	4.76570E-8
1.79650E+0	2.00003E+0	4.25703E-8
1.79700E+0	1.99999E+0	4.50017E-8
1.79750E+0	1.99998E+0	4.32916E-8
1.79800E+0	2.00003E+0	4.01637E-8
1.79850E+0	1.99991E+0	1.21240E-7
1.79900E+0	1.99999E+0	1.38459E-7
1.79950E+0	2.00008E+0	1.13268E-7
1.80000E+0	2.00000E+0	1.00663E-7
1.80050E+0	1.99999E+0	8.79090E-8
1.80100E+0	2.00001E+0	7.81088E-8
1.80150E+0	1.99999E+0	7.36563E-8
1.80200E+0	2.00001E+0	6.70523E-8
1.80250E+0	2.00006E+0	6.28051E-8
1.80300E+0	1.99998E+0	5.91487E-8
1.80350E+0	1.99995E+0	5.99757E-8
1.80400E+0	2.00004E+0	5.09030E-8
1.80450E+0	1.99999E+0	5.14440E-8
1.80500E+0	1.99994E+0	5.25944E-8
1.80550E+0	2.00006E+0	4.57541E-8
1.80600E+0	1.99996E+0	4.65314E-8
1.80650E+0	1.99999E+0	4.58412E-8
1.80700E+0	2.00004E+0	4.29434E-8
1.80750E+0	1.99994E+0	4.22842E-8
1.80800E+0	2.00004E+0	4.62329E-8
1.80850E+0	1.99994E+0	1.52307E-7
1.80900E+0	1.99999E+0	1.28242E-7
1.80950E+0	2.00004E+0	1.10718E-7
1.81000E+0	1.99998E+0	9.53588E-8
1.81050E+0	2.00000E+0	8.25052E-8
1.81100E+0	2.00003E+0	7.99308E-8
1.81150E+0	2.00001E+0	6.88122E-8
1.81200E+0	1.99998E+0	6.59703E-8
1.81250E+0	2.00002E+0	6.43846E-8
1.81300E+0	1.99999E+0	5.64561E-8
1.81350E+0	1.99998E+0	5.84211E-8
1.81400E+0	2.00004E+0	5.29240E-8
1.81450E+0	1.99997E+0	5.06169E-8
1.81500E+0	1.99997E+0	5.13321E-8
1.81550E+0	2.00006E+0	4.58225E-8
1.81600E+0	1.99999E+0	4.56608E-8
1.81650E+0	1.99996E+0	4.79554E-8
1.81700E+0	2.00003E+0	4.07793E-8
1.81750E+0	2.00000E+0	4.38513E-8
1.81800E+0	1.99988E+0	8.41780E-8
1.81850E+0	2.00004E+0	1.46294E-7
1.81900E+0	2.00003E+0	1.21936E-7
1.81950E+0	2.00001E+0	1.04344E-7
1.82000E+0	2.00006E+0	8.85931E-8
1.82050E+0	2.00001E+0	8.12491E-8
1.82100E+0	1.99999E+0	7.68526E-8
1.82150E+0	2.00000E+0	6.74690E-8
1.82200E+0	1.99999E+0	6.58957E-8
1.82250E+0	2.00001E+0	6.27429E-8
1.82300E+0	2.00001E+0	5.50010E-8
1.82350E+0	1.99997E+0	5.70904E-8
1.82400E+0	1.99999E+0	5.15124E-8
1.82450E+0	2.00000E+0	5.13010E-8
1.82500E+0	1.99995E+0	4.94790E-8
1.82550E+0	2.00003E+0	4.51882E-8
1.82600E+0	2.00001E+0	4.63573E-8
1.82650E+0	2.00002E+0	4.36274E-8
1.82700E+0	1.99998E+0	4.58660E-8
1.82750E+0	1.99998E+0	4.04249E-8
1.82800E+0	1.99995E+0	1.27092E-7
1.82850E+0	2.00005E+0	1.37993E-7
1.82900E+0	2.00000E+0	1.12348E-7
1.82950E+0	1.99998E+0	1.00203E-7
1.83000E+0	2.00002E+0	8.64539E-8
1.83050E+0	2.00002E+0	7.98002E-8
1.83100E+0	1.99996E+0	7.21453E-8
1.83150E+0	2.00008E+0	6.74254E-8
1.83200E+0	1.99998E+0	6.42416E-8
1.83250E+0	1.99997E+0	5.93414E-8
1.83300E+0	2.00006E+0	5.66240E-8
1.83350E+0	1.99995E+0	5.52373E-8
1.83400E+0	1.99996E+0	5.21591E-8
1.83450E+0	1.99999E+0	5.11393E-8
1.83500E+0	1.99998E+0	4.79679E-8
1.83550E+0	2.00001E+0	4.61086E-8
1.83600E+0	1.99997E+0	4.79368E-8
1.83650E+0	2.00002E+0	4.14447E-8
1.83700E+0	1.99996E+0	4.35528E-8
1.83750E+0	1.99999E+0	5.00448E-8
1.83800E+0	1.99999E+0	1.55081E-7
1.83850E+0	1.99995E+0	1.29604E-7
1.83900E+0	2.00006E+0	1.07578E-7
1.83950E+0	2.00002E+0	9.17085E-8
1.84000E+0	1.99996E+0	8.49615E-8
1.84050E+0	2.00008E+0	7.61437E-8
1.84100E+0	1.99996E+0	7.16726E-8
1.84150E+0	1.99998E+0	6.42416E-8
1.84200E+0	2.00006E+0	6.11075E-8
1.84250E+0	2.00001E+0	5.80915E-8
1.84300E+0	1.99999E+0	5.76998E-8
1.84350E+0	2.00003E+0	5.40371E-8
1.84400E+0	1.99997E+0	4.93173E-8
1.84450E+0	2.00002E+0	5.08595E-8
1.84500E+0	2.00003E+0	4.50079E-8
1.84550E+0	1.99996E+0	4.62454E-8
1.84600E+0	2.00005E+0	4.50701E-8
1.84650E+0	2.00000E+0	4.24459E-8
1.84700E+0	2.00001E+0	4.10094E-8
1.84750E+0	1.99991E+0	9.43700E-8
1.84800E+0	2.00007E+0	1.45268E-7
1.84850E+0	1.99997E+0	1.20394E-7
1.84900E+0	2.00003E+0	1.02616E-7
1.84950E+0	2.00001E+0	9.09872E-8
1.85000E+0	1.99998E+0	8.00613E-8
1.85050E+0	2.00000E+0	7.48938E-8
1.85100E+0	2.00001E+0	6.75374E-8
1.85150E+0	1.99999E+0	6.58708E-8
1.85200E+0	2.00002E+0	6.08214E-8
1.85250E+0	2.00000E+0	5.70531E-8
1.85300E+0	2.00002E+0	5.51564E-8
1.85350E+0	2.00003E+0	5.39003E-8
1.85400E+0	2.00002E+0	4.82166E-8
1.85450E+0	1.99993E+0	4.91991E-8
1.85500E+0	2.00003E+0	4.87017E-8
1.85550E+0	1.99998E+0	4.29496E-8
1.85600E+0	1.99998E+0	4.57417E-8
1.85650E+0	2.00005E+0	4.32045E-8
1.85700E+0	1.99996E+0	4.15691E-8
1.85750E+0	1.99990E+0	1.32614E-7
1.85800E+0	2.00004E+0	1.37085E-7
1.85850E+0	1.99997E+0	1.12826E-7
1.85900E+0	2.00001E+0	9.71497E-8
1.85950E+0	2.00001E+0	8.59502E-8
1.86000E+0	2.00002E+0	7.95266E-8
1.86050E+0	1.99998E+0	7.25121E-8
1.86100E+0	2.00003E+0	6.73446E-8
1.86150E+0	1.99998E+0	6.29171E-8
1.86200E+0	1.99998E+0	5.92979E-8
1.86250E+0	2.00003E+0	5.73826E-8
1.86300E+0	1.99997E+0	5.39252E-8
1.86350E+0	1.99999E+0	5.24327E-8
1.86400E+0	2.00006E+0	4.76445E-8
1.86450E+0	1.99997E+0	4.90312E-8
1.86500E+0	1.99998E+0	4.69418E-8
1.86550E+0	2.00002E+0	4.40751E-8
1.86600E+0	1.99999E+0	4.51198E-8
1.86650E+0	1.99998E+0	4.34968E-8
1.86700E+0	1.99995E+0	5.19290E-8
1.86750E+0	2.00001E+0	1.55951E-7
1.86800E+0	2.00004E+0	1.29144E-7
1.86850E+0	2.00000E+0	1.04637E-7
1.86900E+0	1.99996E+0	9.55515E-8
1.86950E+0	2.00005E+0	8.36059E-8
1.87000E+0	1.99997E+0	7.45269E-8
1.87050E+0	1.99998E+0	7.12560E-8
1.87100E+0	2.00005E+0	6.29046E-8
1.87150E+0	1.99999E+0	6.32093E-8
1.87200E+0	1.99999E+0	5.86885E-8
1.87250E+0	2.00000E+0	5.56539E-8
1.87300E+0	2.00003E+0	5.17238E-8
1.87350E+0	1.99999E+0	5.30981E-8
1.87400E+0	2.00004E+0	4.66434E-8
1.87450E+0	1.99994E+0	4.82415E-8
1.87500E+0	2.00003E+0	4.69294E-8
1.87550E+0	2.00003E+0	4.20852E-8
1.87600E+0	1.99998E+0	4.42617E-8
1.87650E+0	2.00004E+0	4.27444E-8
1.87700E+0	1.99990E+0	9.88100E-8
1.87750E+0	1.99999E+0	1.44236E-7
1.87800E+0	2.00008E+0	1.18610E-7
1.87850E+0	1.99996E+0	1.00949E-7
1.87900E+0	1.99998E+0	9.08193E-8
1.87950E+0	2.00004E+0	7.89109E-8
1.88000E+0	2.00001E+0	7.38989E-8
1.88050E+0	1.99993E+0	7.00372E-8
1.88100E+0	2.00003E+0	6.25999E-8
1.88150E+0	2.00000E+0	6.01374E-8
1.88200E+0	2.00004E+0	5.66115E-8
1.88250E+0	2.00004E+0	5.68105E-8
1.88300E+0	1.99995E+0	5.18731E-8
1.88350E+0	2.00003E+0	5.07538E-8
1.88400E+0	2.00002E+0	4.86644E-8
1.88450E+0	1.99997E+0	4.67304E-8
1.88500E+0	1.99999E+0	4.73523E-8
1.88550E+0	2.00003E+0	4.14261E-8
1.88600E+0	1.99998E+0	4.31486E-8
1.88650E+0	1.99998E+0	4.60713E-8
1.88700E+0	1.99990E+0	1.36363E-7
1.88750E+0	1.99999E+0	1.35549E-7
1.88800E+0	2.00008E+0	1.11365E-7
1.88850E+0	1.99999E+0	9.48426E-8
1.88900E+0	2.00004E+0	8.58134E-8
1.88950E+0	2.00006E+0	7.94457E-8
1.89000E+0	2.00000E+0	7.14985E-8
1.89050E+0	1.99998E+0	6.86878E-8
1.89100E+0	1.99999E+0	6.32839E-8
1.89150E+0	1.99994E+0	5.96337E-8
1.89200E+0	2.00000E+0	5.73578E-8
1.89250E+0	2.00001E+0	5.26255E-8
1.89300E+0	2.00000E+0	5.17052E-8
1.89350E+0	2.00002E+0	4.79865E-8
1.89400E+0	2.00008E+0	4.93670E-8
1.89450E+0	1.99993E+0	4.58101E-8
1.89500E+0	2.00001E+0	4.46845E-8
1.89550E+0	2.00003E+0	4.24708E-8
1.89600E+0	1.99995E+0	4.43301E-8
1.89650E+0	1.99995E+0	5.85828E-8
1.89700E+0	2.00008E+0	1.55796E-7
1.89750E+0	2.00000E+0	1.25804E-7
1.89800E+0	2.00003E+0	1.07124E-7
1.89850E+0	2.00002E+0	9.30704E-8
1.89900E+0	1.99995E+0	8.42837E-8
1.89950E+0	2.00005E+0	7.61188E-8
1.90000E+0	2.00000E+0	6.91728E-8
1.90050E+0	1.99995E+0	6.61880E-8
1.90100E+0	2.00004E+0	6.10391E-8
1.90150E+0	2.00000E+0	5.60394E-8
1.90200E+0	1.99998E+0	5.76438E-8
1.90250E+0	2.00005E+0	5.17736E-8
1.90300E+0	1.99998E+0	5.20783E-8
1.90350E+0	1.99995E+0	4.85462E-8
1.90400E+0	2.00008E+0	4.66496E-8
1.90450E+0	1.99999E+0	4.51198E-8
1.90500E+0	1.99997E+0	4.73274E-8
1.90550E+0	2.00001E+0	4.30864E-8
1.90600E+0	1.99999E+0	4.08291E-8
1.90650E+0	1.99996E+0	1.07018E-7
1.90700E+0	2.00001E+0	1.44939E-7
1.90750E+0	1.99998E+0	1.16085E-7
1.90800E+0	2.00000E+0	1.01565E-7
1.90850E+0	2.00001E+0	9.10680E-8
1.90900E+0	1.99997E+0	8.03909E-8
1.90950E+0	1.99994E+0	7.29599E-8
1.91000E+0	2.00008E+0	6.75809E-8
1.91050E+0	1.99997E+0	6.53796E-8
1.91100E+0	1.99996E+0	6.08898E-8
1.91150E+0	2.00004E+0	5.58715E-8
1.91200E+0	1.99997E+0	5.44475E-8
1.91250E+0	1.99999E+0	5.32038E-8
1.91300E+0	2.00004E+0	5.03371E-8
1.91350E+0	2.00001E+0	4.78062E-8
1.91400E+0	1.99996E+0	4.70413E-8
1.91450E+0	2.00006E+0	4.43861E-8
1.91500E+0	1.99992E+0	4.44047E-8
1.91550E+0	2.00004E+0	4.02135E-8
1.91600E+0	2.00004E+0	4.41560E-8
1.91650E+0	1.99993E+0	1.45386E-7
1.91700E+0	1.99999E+0	1.34255E-7
1.91750E+0	2.00005E+0	1.08791E-7
1.91800E+0	1.99998E+0	9.71310E-8
1.91850E+0	2.00002E+0	8.69203E-8
1.91900E+0	2.00002E+0	7.50182E-8
1.91950E+0	1.99995E+0	7.25992E-8
1.92000E+0	2.00002E+0	6.62812E-8
1.92050E+0	2.00001E+0	6.38374E-8
1.92100E+0	1.99993E+0	5.94845E-8
1.92150E+0	1.99999E+0	5.59959E-8
1.92200E+0	2.00003E+0	5.17674E-8
1.92250E+0	1.99995E+0	5.42547E-8
1.92300E+0	2.00004E+0	4.91929E-8
1.92350E+0	2.00000E+0	4.76943E-8
1.92400E+0	2.00001E+0	4.58971E-8
1.92450E+0	2.00002E+0	4.62329E-8
1.92500E+0	2.00001E+0	4.31486E-8
1.92550E+0	1.99997E+0	4.14261E-8
1.92600E+0	1.99992E+0	7.15607E-8
1.92650E+0	2.00003E+0	1.49839E-7
1.92700E+0	2.00001E+0	1.26277E-7
1.92750E+0	2.00000E+0	1.07205E-7
1.92800E+0	2.00001E+0	9.04151E-8
1.92850E+0	1.99999E+0	8.38608E-8
1.92900E+0	2.00003E+0	7.37620E-8
1.92950E+0	1.99999E+0	6.94402E-8
1.93000E+0	2.00003E+0	6.44779E-8
1.93050E+0	1.99997E+0	6.31409E-8
1.93100E+0	1.99999E+0	5.82967E-8
1.93150E+0	2.00002E+0	5.51253E-8
1.93200E+0	2.00001E+0	5.34650E-8
1.93250E+0	1.99999E+0	4.98023E-8
1.93300E+0	2.00006E+0	4.82415E-8
1.93350E+0	2.00004E+0	4.94603E-8
1.93400E+0	1.99998E+0	4.57914E-8
1.93450E+0	2.00001E+0	4.52380E-8
1.93500E+0	2.00001E+0	4.41373E-8
1.93550E+0	1.99999E+0	4.09037E-8
1.93600E+0	1.99995E+0	1.12590E-7
1.93650E+0	2.00004E+0	1.43359E-7
1.93700E+0	1.99998E+0	1.16458E-7
1.93750E+0	2.00004E+0	1.01465E-7
1.93800E+0	2.00002E+0	8.74924E-8
1.93850E+0	1.99998E+0	7.93338E-8
1.93900E+0	2.00002E+0	7.39984E-8
1.93950E+0	2.00002E+0	6.89738E-8
1.94000E+0	1.99998E+0	6.27118E-8
1.94050E+0	2.00009E+0	6.04359E-8
1.94100E+0	1.99995E+0	5.78428E-8
1.94150E+0	1.99998E+0	5.48766E-8
1.94200E+0	2.00004E+0	5.22897E-8
1.94250E+0	1.99999E+0	4.81171E-8
1.94300E+0	1.99998E+0	5.03806E-8
1.94350E+0	2.00007E+0	4.63760E-8
1.94400E+0	1.99997E+0	4.44855E-8
1.94450E+0	1.99996E+0	4.45975E-8
1.94500E+0	2.00001E+0	4.16872E-8
1.94550E+0	2.00003E+0	4.60091E-8
1.94600E+0	1.99989E+0	1.50815E-7
1.94650E+0	2.00003E+0	1.28864E-7
1.94700E+0	2.00003E+0	1.12304E-7
1.94750E+0	2.00000E+0	9.42892E-8
1.94800E+0	2.00004E+0	8.56580E-8
1.94850E+0	1.99995E+0	7.82580E-8
1.94900E+0	2.00004E+0	7.03668E-8
1.94950E+0	2.00000E+0	6.55288E-8
1.95000E+0	1.99998E+0	6.38063E-8
1.95050E+0	2.00004E+0	5.99011E-8
1.95100E+0	1.99996E+0	5.62695E-8
1.95150E+0	2.00002E+0	5.14440E-8
1.95200E+0	2.00004E+0	5.18109E-8
1.95250E+0	1.99998E+0	4.99143E-8
1.95300E+0	1.99993E+0	5.05485E-8
1.95350E+0	2.00004E+0	4.32045E-8
1.95400E+0	2.00000E+0	4.64941E-8
1.95450E+0	2.00003E+0	4.30740E-8
1.95500E+0	2.00000E+0	4.23899E-8
1.95550E+0	1.99988E+0	7.82580E-8
1.95600E+0	2.00006E+0	1.49808E-7
1.95650E+0	2.00002E+0	1.25176E-7
1.95700E+0	1.99997E+0	1.04985E-7
1.95750E+0	2.00004E+0	9.04835E-8
1.95800E+0	1.99999E+0	8.06272E-8
1.95850E+0	1.99999E+0	7.68588E-8
1.95900E+0	2.00003E+0	6.96952E-8
1.95950E+0	2.00000E+0	6.50997E-8
1.96000E+0	2.00001E+0	6.10391E-8
1.96050E+0	1.99998E+0	5.82905E-8
1.96100E+0	1.99997E+0	5.82097E-8
1.96150E+0	2.00002E+0	5.04988E-8
1.96200E+0	2.00002E+0	5.05175E-8
1.96250E+0	1.99998E+0	4.94728E-8
1.96300E+0	2.00005E+0	4.85897E-8
1.96350E+0	1.99997E+0	4.36025E-8
1.96400E+0	2.00001E+0	4.62081E-8
1.96450E+0	2.00004E+0	4.06301E-8
1.96500E+0	1.99999E+0	4.36087E-8
1.96550E+0	1.99993E+0	1.19617E-7
1.96600E+0	2.00005E+0	1.40977E-7
1.96650E+0	2.00003E+0	1.15239E-7
1.96700E+0	2.00001E+0	1.00016E-7
1.96750E+0	2.00001E+0	8.87237E-8
1.96800E+0	1.99996E+0	7.85316E-8
1.96850E+0	2.00005E+0	7.34760E-8
1.96900E+0	2.00000E+0	6.91604E-8
1.96950E+0	1.99999E+0	6.32093E-8
1.97000E+0	2.00004E+0	6.07344E-8
1.97050E+0	1.99997E+0	5.52373E-8
1.97100E+0	2.00003E+0	5.53554E-8
1.97150E+0	2.00002E+0	5.34837E-8
1.97200E+0	1.99997E+0	4.83534E-8
1.97250E+0	1.99999E+0	5.12512E-8
1.97300E+0	2.00007E+0	4.45602E-8
1.97350E+0	1.99997E+0	4.51509E-8
1.97400E+0	2.00002E+0	4.67615E-8
1.97450E+0	2.00002E+0	4.21101E-8
1.97500E+0	1.99993E+0	4.62205E-8
1.97550E+0	2.00000E+0	1.55243E-7
1.97600E+0	2.00001E+0	1.29716E-7
1.97650E+0	1.99999E+0	1.11514E-7
1.97700E+0	2.00004E+0	9.42705E-8
1.97750E+0	1.99997E+0	8.58134E-8
1.97800E+0	1.99999E+0	7.75740E-8
1.97850E+0	2.00003E+0	6.88308E-8
1.97900E+0	2.00000E+0	6.79602E-8
1.97950E+0	1.99993E+0	6.39555E-8
1.98000E+0	2.00003E+0	5.92917E-8
1.98050E+0	1.99998E+0	5.44910E-8
1.98100E+0	2.00001E+0	5.40744E-8
1.98150E+0	2.00001E+0	5.00884E-8
1.98200E+0	1.99995E+0	5.13445E-8
1.98250E+0	1.99998E+0	4.90001E-8
1.98300E+0	1.99999E+0	4.43985E-8
1.98350E+0	1.99999E+0	4.64071E-8
1.98400E+0	2.00003E+0	4.37953E-8
1.98450E+0	2.00000E+0	4.17992E-8
1.98500E+0	1.99988E+0	8.64042E-8
1.98550E+0	2.00006E+0	1.47469E-7
1.98600E+0	1.99999E+0	1.22639E-7
1.98650E+0	2.00000E+0	1.04083E-7
1.98700E+0	2.00004E+0	8.87610E-8
1.98750E+0	1.99997E+0	8.23435E-8
1.98800E+0	2.00001E+0	7.65417E-8
1.98850E+0	2.00002E+0	6.84577E-8
1.98900E+0	1.99994E+0	6.42851E-8
1.98950E+0	2.00003E+0	6.03924E-8
1.99000E+0	2.00001E+0	5.91984E-8
1.99050E+0	1.99995E+0	5.55233E-8
1.99100E+0	2.00004E+0	5.24949E-8
1.99150E+0	1.99995E+0	5.12077E-8
1.99200E+0	1.99998E+0	5.05859E-8
1.99250E+0	2.00003E+0	4.47840E-8
1.99300E+0	1.99993E+0	4.62578E-8
1.99350E+0	2.00004E+0	4.45913E-8
1.99400E+0	2.00001E+0	4.19795E-8
1.99450E+0	2.00000E+0	4.26387E-8
1.99500E+0	1.99990E+0	1.30425E-7
1.99550E+0	2.00003E+0	1.34958E-7
1.99600E+0	2.00002E+0	1.16234E-7
1.99650E+0	2.00001E+0	9.86421E-8
1.99700E+0	2.00002E+0	8.56517E-8
1.99750E+0	2.00002E+0	8.03350E-8
1.99800E+0	2.00001E+0	7.27547E-8
1.99850E+0	1.99999E+0	6.71207E-8
1.99900E+0	1.99997E+0	6.57775E-8
1.99950E+0	2.00002E+0	5.82657E-8
