## Header ##
[General info]
User	Giorgos_Psaltakis
Device	Sample
Cell area (cm2)	1
Test	Memristor
Date	2024-03-03
Time	03:30:29
Note	

[Acquisition Settings]
Sampling time (s)	5.000E-1
Voltage Range (V)	6.000E+0
Current Range (A)	1.000E-6
Current Limit (A)	1.000E-6

[Waveform Settings]
V_HRS (V)	0.5000
V_LRS (V)	0.5000
V_READ (V)	0.5000
t_HRS (s)	0.0200
t_LRS (s)	0.0200
t_READ (s)	0.0000
d_HRS (s)	0.0100
d_LRS (s)	0.0000
d_READ (s)	0.0000
Cycles	1

## Data ##
Time (s)	Voltage (V)	Current (A)
0.00000E+0	1.15029E-4	4.83235E-8
5.00000E-4	-5.93872E-5	-1.64394E-9
1.00000E-3	5.41217E-5	2.10846E-8
1.50000E-3	4.58161E-5	7.92042E-10
2.00000E-3	1.25940E-5	-3.10631E-10
2.50000E-3	1.25940E-5	-8.92822E-10
3.00000E-3	4.28849E-6	-5.83650E-10
3.50000E-3	1.25940E-5	-8.06802E-10
4.00000E-3	7.05700E-6	-6.96473E-10
4.50000E-3	-9.55405E-6	-5.56847E-10
5.00000E-3	-2.33966E-5	-5.88636E-10
5.50000E-3	1.25940E-5	-7.41352E-10
6.00000E-3	9.82551E-6	-8.47319E-10
6.50000E-3	-1.50911E-5	-4.35920E-10
7.00000E-3	1.53625E-5	-7.15173E-10
7.50000E-3	2.08996E-5	-6.49100E-10
8.00000E-3	1.51999E-6	-5.83026E-10
8.50000E-3	4.02791E-5	-5.13213E-10
9.00000E-3	2.92051E-5	-6.74033E-10
9.50000E-3	-3.17021E-5	-4.55867E-10
1.00000E-2	4.44034E-1	3.43297E-7
1.05000E-2	5.00025E-1	1.76295E-8
1.10000E-2	4.99964E-1	1.45963E-8
1.15000E-2	4.93829E-1	5.70043E-7
1.20000E-2	5.05091E-1	6.86440E-7
1.25000E-2	5.00814E-1	9.56007E-8
1.30000E-2	5.00188E-1	4.28326E-8
1.35000E-2	5.00050E-1	2.87858E-8
1.40000E-2	5.00036E-1	2.20501E-8
1.45000E-2	5.00011E-1	1.83419E-8
1.50000E-2	4.99997E-1	1.56248E-8
1.55000E-2	5.00019E-1	1.36171E-8
1.60000E-2	5.00003E-1	1.25867E-8
1.65000E-2	5.00033E-1	1.12191E-8
1.70000E-2	5.00000E-1	1.01071E-8
1.75000E-2	5.00019E-1	9.59909E-9
1.80000E-2	5.00025E-1	9.04494E-9
1.85000E-2	4.99983E-1	8.19784E-9
1.90000E-2	5.00019E-1	7.93355E-9
1.95000E-2	5.00014E-1	7.63185E-9
2.00000E-2	5.00000E-1	7.23105E-9
2.05000E-2	4.99969E-1	6.96676E-9
2.10000E-2	5.00025E-1	6.33719E-9
2.15000E-2	4.99978E-1	6.25554E-9
2.20000E-2	4.99374E-1	1.26173E-8
2.25000E-2	4.94568E-1	6.54265E-7
2.30000E-2	5.05268E-1	5.37310E-7
2.35000E-2	5.00623E-1	7.27911E-8
2.40000E-2	5.00174E-1	3.57659E-8
2.45000E-2	5.00047E-1	2.45771E-8
2.50000E-2	5.00033E-1	1.89484E-8
2.55000E-2	5.00019E-1	1.55500E-8
2.60000E-2	5.00008E-1	1.35635E-8
2.65000E-2	5.00028E-1	1.17271E-8
2.70000E-2	5.00008E-1	1.07298E-8
2.75000E-2	5.00016E-1	9.65581E-9
2.80000E-2	5.00019E-1	8.68715E-9
2.85000E-2	5.00008E-1	8.46587E-9
2.90000E-2	5.00014E-1	7.73096E-9
2.95000E-2	5.00003E-1	7.38439E-9
3.00000E-2	5.00028E-1	6.83150E-9
3.05000E-2	4.99975E-1	6.70932E-9
3.10000E-2	4.99997E-1	6.16204E-9
3.15000E-2	4.99994E-1	6.05670E-9
3.20000E-2	5.00022E-1	5.85100E-9
3.25000E-2	4.99964E-1	5.67459E-9
3.30000E-2	4.97132E-1	5.14022E-8
3.35000E-2	4.97015E-1	7.35918E-7
3.40000E-2	5.05520E-1	4.02084E-7
3.45000E-2	5.00382E-1	5.90916E-8
3.50000E-2	5.00091E-1	3.19243E-8
3.55000E-2	5.00072E-1	2.25158E-8
3.60000E-2	5.00014E-1	1.74319E-8
3.65000E-2	5.00014E-1	1.43046E-8
3.70000E-2	4.99978E-1	1.25456E-8
3.75000E-2	4.99994E-1	1.09742E-8
3.80000E-2	5.00011E-1	9.71690E-9
3.85000E-2	5.00008E-1	9.25501E-9
3.90000E-2	5.00005E-1	8.33185E-9
3.95000E-2	5.00019E-1	7.71912E-9
4.00000E-2	4.99969E-1	7.22669E-9
4.05000E-2	5.00047E-1	6.73301E-9
4.10000E-2	4.99961E-1	6.66569E-9
4.15000E-2	4.99986E-1	5.98875E-9
4.20000E-2	4.99994E-1	6.05732E-9
4.25000E-2	4.99989E-1	5.51689E-9
4.30000E-2	4.99994E-1	5.37477E-9
4.35000E-2	4.99978E-1	5.44770E-9
4.40000E-2	4.94992E-1	1.47968E-7
4.45000E-2	4.98962E-1	7.65890E-7
4.50000E-2	5.05642E-1	2.67550E-7
4.55000E-2	5.00263E-1	5.04809E-8
4.60000E-2	5.00072E-1	2.93736E-8
4.65000E-2	5.00055E-1	2.06152E-8
4.70000E-2	5.00025E-1	1.64545E-8
4.75000E-2	5.00019E-1	1.36420E-8
4.80000E-2	5.00008E-1	1.19017E-8
4.85000E-2	4.99994E-1	1.02766E-8
4.90000E-2	5.00044E-1	9.22571E-9
4.95000E-2	5.00047E-1	8.59490E-9
5.00000E-2	5.58451E-2	-3.42091E-7
5.05000E-2	-3.72391E-5	-1.36867E-8
5.10000E-2	-2.89336E-5	-8.98615E-9
5.15000E-2	-1.78596E-5	-6.95970E-9
5.20000E-2	-2.89336E-5	-5.79283E-9
5.25000E-2	1.25940E-5	-4.75934E-9
5.30000E-2	-1.24852E-6	-4.24510E-9
5.35000E-2	-6.78554E-6	-3.77822E-9
5.40000E-2	-1.24852E-6	-3.44162E-9
5.45000E-2	4.28849E-6	-3.27582E-9
5.50000E-2	3.36510E-4	-2.95723E-8
5.55000E-2	-1.56285E-4	-3.46836E-8
5.60000E-2	-1.17526E-4	-7.76692E-9
5.65000E-2	-6.78554E-6	-3.75765E-9
5.70000E-2	-1.23226E-5	-3.03895E-9
5.75000E-2	-1.23226E-5	-2.78401E-9
5.80000E-2	-9.55405E-6	-2.67119E-9
5.85000E-2	-1.24852E-6	-2.19309E-9
5.90000E-2	-9.55405E-6	-2.24857E-9
5.95000E-2	-2.06281E-5	-2.07590E-9
6.00000E-2	4.43182E-1	3.49072E-7
6.05000E-2	5.00055E-1	2.08839E-8
6.10000E-2	5.00028E-1	1.56847E-8
6.15000E-2	5.00011E-1	1.28847E-8
6.20000E-2	5.00003E-1	1.11375E-8
6.25000E-2	5.00019E-1	9.92384E-9
6.30000E-2	4.99980E-1	8.97575E-9
6.35000E-2	4.99994E-1	8.18537E-9
6.40000E-2	5.00000E-1	7.87869E-9
6.45000E-2	4.99994E-1	7.19365E-9
6.50000E-2	5.00030E-1	6.86453E-9
6.55000E-2	5.00003E-1	6.57157E-9
6.60000E-2	4.94407E-1	4.16182E-7
6.65000E-2	5.03862E-1	7.26498E-7
6.70000E-2	5.01232E-1	1.02569E-7
6.75000E-2	5.00183E-1	4.07712E-8
6.80000E-2	5.00050E-1	2.62015E-8
6.85000E-2	5.00050E-1	1.95468E-8
6.90000E-2	4.99978E-1	1.55463E-8
6.95000E-2	5.00022E-1	1.32387E-8
7.00000E-2	5.00028E-1	1.17602E-8
7.05000E-2	4.99972E-1	1.02692E-8
7.10000E-2	5.00030E-1	9.56169E-9
7.15000E-2	4.99992E-1	8.57184E-9
7.20000E-2	4.99994E-1	7.66801E-9
7.25000E-2	4.99997E-1	7.43426E-9
7.30000E-2	5.00003E-1	6.98858E-9
7.35000E-2	5.00005E-1	6.44565E-9
7.40000E-2	5.00028E-1	6.04610E-9
7.45000E-2	4.99972E-1	6.11778E-9
7.50000E-2	5.00019E-1	5.50068E-9
7.55000E-2	4.99989E-1	5.49071E-9
7.60000E-2	4.99992E-1	5.20710E-9
7.65000E-2	4.99933E-1	5.67771E-9
7.70000E-2	4.94308E-1	5.25311E-7
7.75000E-2	5.04764E-1	6.03666E-7
7.80000E-2	5.00745E-1	8.09293E-8
7.85000E-2	5.00127E-1	3.59853E-8
7.90000E-2	5.00066E-1	2.33884E-8
7.95000E-2	5.00052E-1	1.80409E-8
8.00000E-2	5.00033E-1	1.46406E-8
8.05000E-2	5.00008E-1	1.20880E-8
8.10000E-2	5.00003E-1	1.09100E-8
8.15000E-2	4.99989E-1	9.48315E-9
8.20000E-2	5.00025E-1	8.73079E-9
8.25000E-2	4.99994E-1	7.99962E-9
8.30000E-2	4.99997E-1	7.30772E-9
8.35000E-2	5.00028E-1	6.82776E-9
8.40000E-2	4.99992E-1	6.51297E-9
8.45000E-2	5.00025E-1	6.01930E-9
8.50000E-2	5.00003E-1	5.92642E-9
8.55000E-2	5.00000E-1	5.45518E-9
8.60000E-2	5.00011E-1	5.35856E-9
8.65000E-2	5.00005E-1	5.10674E-9
8.70000E-2	4.99997E-1	5.05937E-9
8.75000E-2	4.99128E-1	1.41818E-8
8.80000E-2	4.95119E-1	6.41577E-7
8.85000E-2	5.05072E-1	4.82470E-7
8.90000E-2	5.00542E-1	6.47396E-8
8.95000E-2	5.00124E-1	3.23494E-8
9.00000E-2	5.00050E-1	2.19348E-8
9.05000E-2	5.00022E-1	1.68877E-8
9.10000E-2	5.00014E-1	1.38546E-8
9.15000E-2	5.00016E-1	1.19310E-8
9.20000E-2	5.00003E-1	1.02249E-8
9.25000E-2	4.99997E-1	9.29365E-9
9.30000E-2	4.99992E-1	8.13675E-9
9.35000E-2	5.00025E-1	7.71725E-9
9.40000E-2	5.00005E-1	6.93933E-9
9.45000E-2	5.00005E-1	6.76168E-9
9.50000E-2	4.99994E-1	6.16578E-9
9.55000E-2	5.00033E-1	5.80238E-9
9.60000E-2	5.00011E-1	5.78679E-9
9.65000E-2	5.00003E-1	5.44458E-9
9.70000E-2	4.99980E-1	5.10175E-9
9.75000E-2	5.00030E-1	4.68911E-9
9.80000E-2	4.99989E-1	4.90353E-9
9.85000E-2	4.96661E-1	6.39056E-8
9.90000E-2	4.97691E-1	7.17082E-7
9.95000E-2	5.05329E-1	3.56478E-7
