## Header ##
[General info]
User	Giorgos_Psaltakis
Device	Sample
Cell area (cm2)	1
Test	Memristor
Date	2024-03-03
Time	03:41:02
Note	

[Acquisition Settings]
Sampling time (s)	5.000E-1
Voltage Range (V)	6.000E+0
Current Range (A)	1.000E-5
Current Limit (A)	1.000E-5

[Waveform Settings]
V_HRS (V)	2.0000
V_LRS (V)	2.0000
V_READ (V)	2.0000
t_HRS (s)	0.0200
t_LRS (s)	0.0200
t_READ (s)	0.0000
d_HRS (s)	0.0000
d_LRS (s)	0.0000
d_READ (s)	0.0000
Cycles	50

## Data ##
Time (s)	Voltage (V)	Current (A)
0.00000E+0	1.88348E+0	1.29262E-6
5.00000E-4	2.00001E+0	4.32294E-8
1.00000E-3	1.99996E+0	3.39701E-8
1.50000E-3	2.00003E+0	2.72666E-8
2.00000E-3	2.00000E+0	2.48787E-8
2.50000E-3	1.99998E+0	2.02336E-8
3.00000E-3	1.99998E+0	2.27272E-8
3.50000E-3	2.00001E+0	1.63843E-8
4.00000E-3	1.99999E+0	1.77026E-8
4.50000E-3	2.00006E+0	1.66579E-8
5.00000E-3	1.99999E+0	1.54143E-8
5.50000E-3	1.99995E+0	1.64652E-8
6.00000E-3	2.00006E+0	1.50660E-8
6.50000E-3	1.99999E+0	1.58744E-8
7.00000E-3	1.99998E+0	1.58682E-8
7.50000E-3	2.00004E+0	1.16956E-8
8.00000E-3	1.99999E+0	1.51842E-8
8.50000E-3	2.00005E+0	1.32627E-8
9.00000E-3	2.00004E+0	1.49541E-8
9.50000E-3	1.99998E+0	1.41519E-8
1.00000E-2	1.99996E+0	1.54143E-8
1.05000E-2	1.99999E+0	1.62227E-8
1.10000E-2	2.00000E+0	2.42134E-8
1.15000E-2	2.00003E+0	2.32371E-8
1.20000E-2	1.99996E+0	2.20245E-8
1.25000E-2	1.99996E+0	2.37656E-8
1.30000E-2	2.00006E+0	2.30692E-8
1.35000E-2	1.99999E+0	1.98542E-8
1.40000E-2	1.99997E+0	2.44808E-8
1.45000E-2	2.00003E+0	2.05507E-8
1.50000E-2	2.00000E+0	2.14462E-8
1.55000E-2	1.99998E+0	2.35231E-8
1.60000E-2	2.00003E+0	2.10109E-8
1.65000E-2	1.99998E+0	2.07932E-8
1.70000E-2	1.99995E+0	2.45554E-8
1.75000E-2	2.00002E+0	1.99164E-8
1.80000E-2	1.99997E+0	2.02087E-8
1.85000E-2	2.00001E+0	2.16514E-8
1.90000E-2	1.99999E+0	1.89028E-8
1.95000E-2	1.99996E+0	2.14959E-8
2.00000E-2	2.00002E+0	2.40144E-8
2.05000E-2	1.99999E+0	1.02566E-7
2.10000E-2	2.00001E+0	8.78780E-8
2.15000E-2	2.00004E+0	7.88425E-8
2.20000E-2	1.99998E+0	6.99626E-8
2.25000E-2	1.99997E+0	6.53547E-8
2.30000E-2	2.00001E+0	5.96897E-8
2.35000E-2	1.99998E+0	5.48828E-8
2.40000E-2	1.99999E+0	5.16803E-8
2.45000E-2	2.00003E+0	4.88198E-8
2.50000E-2	1.99998E+0	4.78124E-8
2.55000E-2	1.99996E+0	4.69543E-8
2.60000E-2	2.00006E+0	4.19360E-8
2.65000E-2	2.00000E+0	4.20666E-8
2.70000E-2	1.99995E+0	4.18427E-8
2.75000E-2	2.00004E+0	3.71913E-8
2.80000E-2	1.99996E+0	3.88392E-8
2.85000E-2	2.00002E+0	3.56118E-8
2.90000E-2	2.00004E+0	3.79810E-8
2.95000E-2	2.00000E+0	3.55745E-8
3.00000E-2	1.99992E+0	8.86428E-8
3.05000E-2	2.00005E+0	1.41326E-7
3.10000E-2	1.99996E+0	1.12466E-7
3.15000E-2	2.00006E+0	9.26040E-8
3.20000E-2	2.00003E+0	8.18150E-8
3.25000E-2	2.00002E+0	7.32957E-8
3.30000E-2	1.99998E+0	6.99439E-8
3.35000E-2	2.00000E+0	6.26683E-8
3.40000E-2	1.99999E+0	5.79423E-8
3.45000E-2	1.99999E+0	5.67794E-8
3.50000E-2	2.00001E+0	5.14253E-8
3.55000E-2	1.99996E+0	5.26317E-8
3.60000E-2	2.00002E+0	4.79430E-8
3.65000E-2	1.99997E+0	4.49581E-8
3.70000E-2	1.99998E+0	4.57914E-8
3.75000E-2	2.00005E+0	4.04125E-8
3.80000E-2	1.99999E+0	4.23588E-8
3.85000E-2	1.99995E+0	4.20417E-8
3.90000E-2	1.99999E+0	4.01140E-8
3.95000E-2	2.00001E+0	3.83728E-8
4.00000E-2	1.99993E+0	1.31587E-7
4.05000E-2	2.00006E+0	1.30425E-7
4.10000E-2	2.00001E+0	1.06602E-7
4.15000E-2	2.00000E+0	9.19262E-8
4.20000E-2	2.00004E+0	8.16781E-8
4.25000E-2	2.00001E+0	7.20209E-8
4.30000E-2	1.99997E+0	6.68098E-8
4.35000E-2	2.00007E+0	6.14930E-8
4.40000E-2	2.00001E+0	5.91922E-8
4.45000E-2	1.99999E+0	5.60084E-8
4.50000E-2	2.00000E+0	5.21156E-8
4.55000E-2	1.99996E+0	5.04055E-8
4.60000E-2	2.00006E+0	4.79803E-8
4.65000E-2	2.00001E+0	4.71657E-8
4.70000E-2	1.99998E+0	4.31983E-8
4.75000E-2	2.00000E+0	4.57106E-8
4.80000E-2	1.99999E+0	4.13888E-8
4.85000E-2	1.99998E+0	4.11587E-8
4.90000E-2	2.00002E+0	4.14074E-8
4.95000E-2	1.99992E+0	5.21840E-8
5.00000E-2	2.00000E+0	1.54795E-7
5.05000E-2	2.00006E+0	1.21706E-7
5.10000E-2	2.00000E+0	1.01702E-7
5.15000E-2	1.99997E+0	8.82635E-8
5.20000E-2	2.00003E+0	7.75926E-8
5.25000E-2	1.99997E+0	7.22074E-8
5.30000E-2	2.00004E+0	6.50686E-8
5.35000E-2	2.00003E+0	6.47266E-8
5.40000E-2	1.99999E+0	5.77122E-8
5.45000E-2	1.99994E+0	5.79609E-8
5.50000E-2	2.00003E+0	4.96966E-8
5.55000E-2	1.99997E+0	5.13196E-8
5.60000E-2	2.00000E+0	4.96033E-8
5.65000E-2	1.99998E+0	4.40689E-8
5.70000E-2	2.00003E+0	4.57044E-8
5.75000E-2	2.00001E+0	4.49395E-8
5.80000E-2	2.00000E+0	4.02010E-8
5.85000E-2	1.99998E+0	4.40503E-8
5.90000E-2	2.00004E+0	3.77199E-8
5.95000E-2	1.99988E+0	1.00209E-7
6.00000E-2	2.00001E+0	1.40542E-7
6.05000E-2	2.00005E+0	1.12118E-7
6.10000E-2	1.99997E+0	9.86483E-8
6.15000E-2	2.00001E+0	8.57637E-8
6.20000E-2	2.00002E+0	7.54783E-8
6.25000E-2	2.00000E+0	7.00932E-8
6.30000E-2	2.00000E+0	6.70523E-8
6.35000E-2	2.00003E+0	5.89621E-8
6.40000E-2	1.99998E+0	5.99073E-8
6.45000E-2	2.00002E+0	5.26753E-8
6.50000E-2	2.00003E+0	5.10087E-8
6.55000E-2	1.99991E+0	5.28369E-8
6.60000E-2	2.00006E+0	4.75948E-8
6.65000E-2	1.99996E+0	4.42368E-8
6.70000E-2	1.99999E+0	4.74953E-8
6.75000E-2	2.00006E+0	4.16810E-8
6.80000E-2	1.99999E+0	4.27879E-8
6.85000E-2	1.99999E+0	4.15007E-8
6.90000E-2	2.00001E+0	4.01388E-8
6.95000E-2	1.99991E+0	1.40293E-7
7.00000E-2	2.00006E+0	1.28864E-7
7.05000E-2	2.00000E+0	1.07093E-7
7.10000E-2	1.99997E+0	9.43078E-8
7.15000E-2	2.00006E+0	8.23062E-8
7.20000E-2	1.99999E+0	7.20582E-8
7.25000E-2	1.99997E+0	7.14301E-8
7.30000E-2	2.00004E+0	6.39307E-8
7.35000E-2	1.99995E+0	5.82532E-8
7.40000E-2	1.99999E+0	5.82967E-8
7.45000E-2	1.99999E+0	5.34650E-8
7.50000E-2	2.00000E+0	5.25074E-8
7.55000E-2	1.99999E+0	4.99578E-8
7.60000E-2	2.00001E+0	4.91805E-8
7.65000E-2	1.99994E+0	4.68859E-8
7.70000E-2	2.00006E+0	4.26200E-8
7.75000E-2	1.99999E+0	4.50203E-8
7.80000E-2	1.99994E+0	4.16686E-8
7.85000E-2	2.00006E+0	4.11276E-8
7.90000E-2	1.99982E+0	6.12319E-8
7.95000E-2	2.00005E+0	1.52631E-7
8.00000E-2	2.00003E+0	1.21713E-7
8.05000E-2	1.99996E+0	1.01136E-7
8.10000E-2	2.00005E+0	8.96689E-8
8.15000E-2	2.00002E+0	7.66972E-8
8.20000E-2	1.99999E+0	7.39735E-8
8.25000E-2	2.00005E+0	6.59019E-8
8.30000E-2	2.00001E+0	6.33897E-8
8.35000E-2	1.99998E+0	6.10204E-8
8.40000E-2	2.00003E+0	5.55979E-8
8.45000E-2	2.00001E+0	5.31603E-8
8.50000E-2	2.00002E+0	5.15808E-8
8.55000E-2	1.99998E+0	4.81544E-8
8.60000E-2	1.99998E+0	4.99951E-8
8.65000E-2	2.00001E+0	4.35714E-8
8.70000E-2	2.00001E+0	4.58971E-8
8.75000E-2	1.99997E+0	4.30677E-8
8.80000E-2	2.00004E+0	4.18178E-8
8.85000E-2	1.99996E+0	3.96227E-8
8.90000E-2	1.99995E+0	1.06583E-7
8.95000E-2	2.00000E+0	1.38502E-7
9.00000E-2	2.00005E+0	1.13423E-7
9.05000E-2	1.99998E+0	9.84058E-8
9.10000E-2	2.00004E+0	8.25985E-8
9.15000E-2	2.00003E+0	7.81461E-8
9.20000E-2	1.99995E+0	7.15980E-8
9.25000E-2	2.00004E+0	6.51619E-8
9.30000E-2	1.99999E+0	6.04670E-8
9.35000E-2	1.99997E+0	5.75132E-8
9.40000E-2	2.00004E+0	5.41055E-8
9.45000E-2	1.99996E+0	5.31292E-8
9.50000E-2	2.00004E+0	4.94603E-8
9.55000E-2	2.00001E+0	4.92986E-8
9.60000E-2	1.99996E+0	4.56608E-8
9.65000E-2	2.00006E+0	4.63573E-8
9.70000E-2	2.00000E+0	4.30366E-8
9.75000E-2	2.00001E+0	4.36150E-8
9.80000E-2	2.00000E+0	4.33724E-8
9.85000E-2	2.00000E+0	4.18987E-8
9.90000E-2	1.99991E+0	1.43676E-7
9.95000E-2	2.00006E+0	1.27446E-7
1.00000E-1	2.00000E+0	1.08990E-7
1.00500E-1	1.99995E+0	9.33440E-8
1.01000E-1	2.00003E+0	8.30338E-8
1.01500E-1	2.00001E+0	7.31651E-8
1.02000E-1	2.00001E+0	6.92848E-8
1.02500E-1	2.00001E+0	6.62626E-8
1.03000E-1	1.99999E+0	5.85082E-8
1.03500E-1	1.99998E+0	5.86947E-8
1.04000E-1	2.00004E+0	5.52186E-8
1.04500E-1	1.99998E+0	5.06480E-8
1.05000E-1	2.00001E+0	5.13756E-8
1.05500E-1	2.00002E+0	4.61645E-8
1.06000E-1	1.99999E+0	4.81047E-8
1.06500E-1	1.99999E+0	4.29434E-8
1.07000E-1	2.00003E+0	4.54121E-8
1.07500E-1	1.99998E+0	4.16313E-8
1.08000E-1	2.00006E+0	4.16872E-8
1.08500E-1	1.99989E+0	6.92039E-8
1.09000E-1	1.99998E+0	1.49410E-7
1.09500E-1	2.00009E+0	1.20146E-7
1.10000E-1	1.99997E+0	9.99977E-8
1.10500E-1	2.00003E+0	8.98305E-8
1.11000E-1	2.00003E+0	8.02168E-8
1.11500E-1	1.99995E+0	7.36750E-8
1.12000E-1	2.00000E+0	6.87189E-8
1.12500E-1	2.00001E+0	6.04670E-8
1.13000E-1	1.99996E+0	6.23139E-8
1.13500E-1	2.00001E+0	5.57347E-8
1.14000E-1	1.99999E+0	5.15497E-8
1.14500E-1	2.00000E+0	5.04428E-8
1.15000E-1	2.00006E+0	4.92738E-8
1.15500E-1	1.99999E+0	4.74269E-8
1.16000E-1	1.99998E+0	4.77938E-8
1.16500E-1	2.00005E+0	4.15069E-8
1.17000E-1	2.00000E+0	4.27693E-8
1.17500E-1	1.99999E+0	4.38202E-8
1.18000E-1	2.00001E+0	4.02259E-8
1.18500E-1	1.99988E+0	1.16508E-7
1.19000E-1	2.00004E+0	1.37072E-7
1.19500E-1	2.00001E+0	1.13423E-7
1.20000E-1	1.99998E+0	9.59122E-8
1.20500E-1	2.00006E+0	8.60559E-8
1.21000E-1	1.99997E+0	7.83886E-8
1.21500E-1	1.99995E+0	7.01927E-8
1.22000E-1	2.00008E+0	6.46520E-8
1.22500E-1	2.00000E+0	6.27803E-8
1.23000E-1	2.00000E+0	5.87196E-8
1.23500E-1	2.00000E+0	5.75816E-8
1.24000E-1	1.99997E+0	5.10274E-8
1.24500E-1	2.00000E+0	5.23084E-8
1.25000E-1	2.00007E+0	4.63697E-8
1.25500E-1	1.99996E+0	4.87576E-8
1.26000E-1	1.99998E+0	4.60215E-8
1.26500E-1	2.00002E+0	4.40938E-8
1.27000E-1	1.99996E+0	4.17494E-8
1.27500E-1	1.99998E+0	4.40067E-8
1.28000E-1	2.00001E+0	4.38513E-8
1.28500E-1	1.99990E+0	1.46443E-7
1.29000E-1	2.00006E+0	1.29224E-7
1.29500E-1	2.00002E+0	1.06465E-7
1.30000E-1	1.99992E+0	9.27657E-8
1.30500E-1	2.00003E+0	8.13859E-8
1.31000E-1	2.00000E+0	7.34884E-8
1.31500E-1	1.99997E+0	6.91977E-8
1.32000E-1	2.00003E+0	6.48386E-8
1.32500E-1	1.99999E+0	5.95218E-8
1.33000E-1	1.99996E+0	6.03737E-8
1.33500E-1	2.00003E+0	5.36951E-8
1.34000E-1	1.99998E+0	5.25385E-8
1.34500E-1	1.99999E+0	5.02811E-8
1.35000E-1	2.00005E+0	4.74020E-8
1.35500E-1	2.00001E+0	4.48587E-8
1.36000E-1	2.00001E+0	4.66558E-8
1.36500E-1	2.00001E+0	4.33227E-8
1.37000E-1	1.99996E+0	4.40627E-8
1.37500E-1	2.00001E+0	4.29931E-8
1.38000E-1	1.99991E+0	7.74558E-8
1.38500E-1	1.99998E+0	1.47283E-7
1.39000E-1	2.00007E+0	1.20158E-7
1.39500E-1	2.00001E+0	1.00501E-7
1.40000E-1	1.99996E+0	9.12297E-8
1.40500E-1	2.00007E+0	7.64857E-8
1.41000E-1	1.99998E+0	7.47757E-8
1.41500E-1	1.99998E+0	6.80038E-8
1.42000E-1	2.00005E+0	5.97954E-8
1.42500E-1	1.99995E+0	6.06473E-8
1.43000E-1	1.99999E+0	5.72272E-8
1.43500E-1	2.00004E+0	5.11144E-8
1.44000E-1	1.99996E+0	5.39003E-8
1.44500E-1	2.00002E+0	4.70289E-8
1.45000E-1	2.00003E+0	4.79865E-8
1.45500E-1	2.00003E+0	4.56111E-8
1.46000E-1	2.00002E+0	4.69294E-8
1.46500E-1	1.99999E+0	4.19919E-8
1.47000E-1	1.99994E+0	4.17494E-8
1.47500E-1	2.00004E+0	4.23651E-8
1.48000E-1	1.99993E+0	1.19138E-7
1.48500E-1	1.99999E+0	1.34827E-7
1.49000E-1	2.00005E+0	1.11042E-7
1.49500E-1	2.00000E+0	9.54893E-8
1.50000E-1	2.00001E+0	8.46133E-8
1.50500E-1	2.00007E+0	7.82269E-8
1.51000E-1	1.99997E+0	6.89303E-8
1.51500E-1	2.00000E+0	6.55288E-8
1.52000E-1	2.00007E+0	6.25191E-8
1.52500E-1	1.99999E+0	6.00068E-8
1.53000E-1	2.00000E+0	5.41677E-8
1.53500E-1	2.00002E+0	5.22711E-8
1.54000E-1	1.99999E+0	5.17736E-8
1.54500E-1	2.00000E+0	4.94230E-8
1.55000E-1	2.00002E+0	4.78373E-8
1.55500E-1	1.99995E+0	4.63013E-8
1.56000E-1	2.00003E+0	4.45850E-8
1.56500E-1	1.99999E+0	4.22842E-8
1.57000E-1	1.99997E+0	4.13141E-8
1.57500E-1	2.00001E+0	4.62640E-8
1.58000E-1	1.99993E+0	1.51686E-7
1.58500E-1	1.99997E+0	1.29100E-7
1.59000E-1	2.00008E+0	1.02995E-7
1.59500E-1	1.99999E+0	9.35119E-8
1.60000E-1	1.99997E+0	8.41469E-8
1.60500E-1	2.00002E+0	7.28231E-8
1.61000E-1	1.99993E+0	7.15296E-8
1.61500E-1	2.00005E+0	6.26745E-8
1.62000E-1	2.00000E+0	5.96151E-8
1.62500E-1	1.99995E+0	6.06162E-8
1.63000E-1	2.00005E+0	5.18979E-8
1.63500E-1	1.99998E+0	5.34277E-8
1.64000E-1	2.00000E+0	5.09963E-8
1.64500E-1	2.00002E+0	4.74269E-8
1.65000E-1	1.99998E+0	4.56546E-8
1.65500E-1	2.00002E+0	4.63200E-8
1.66000E-1	1.99999E+0	4.30802E-8
1.66500E-1	1.99995E+0	4.46037E-8
1.67000E-1	2.00006E+0	3.94921E-8
1.67500E-1	1.99986E+0	8.64228E-8
1.68000E-1	1.99997E+0	1.47190E-7
1.68500E-1	2.00007E+0	1.17242E-7
1.69000E-1	1.99996E+0	9.95749E-8
1.69500E-1	1.99999E+0	8.84936E-8
1.70000E-1	2.00007E+0	7.65106E-8
1.70500E-1	1.99999E+0	7.37496E-8
1.71000E-1	2.00001E+0	6.76991E-8
1.71500E-1	2.00001E+0	6.22952E-8
1.72000E-1	1.99999E+0	6.09085E-8
1.72500E-1	2.00006E+0	5.55668E-8
1.73000E-1	1.99998E+0	5.44537E-8
1.73500E-1	1.99995E+0	5.17860E-8
1.74000E-1	2.00003E+0	4.83534E-8
1.74500E-1	2.00001E+0	4.70849E-8
1.75000E-1	1.99994E+0	4.78870E-8
1.75500E-1	2.00006E+0	4.43550E-8
1.76000E-1	1.99999E+0	4.14882E-8
1.76500E-1	2.00006E+0	4.19298E-8
1.77000E-1	2.00000E+0	4.36647E-8
1.77500E-1	1.99989E+0	1.26090E-7
1.78000E-1	2.00007E+0	1.33727E-7
1.78500E-1	2.00002E+0	1.10662E-7
1.79000E-1	2.00000E+0	9.76161E-8
1.79500E-1	2.00005E+0	8.33944E-8
1.80000E-1	1.99999E+0	7.85254E-8
1.80500E-1	1.99992E+0	7.20582E-8
1.81000E-1	2.00006E+0	6.46955E-8
1.81500E-1	1.99995E+0	6.17729E-8
1.82000E-1	2.00002E+0	5.78055E-8
1.82500E-1	2.00004E+0	5.51253E-8
1.83000E-1	1.99997E+0	5.35272E-8
1.83500E-1	2.00004E+0	5.19539E-8
1.84000E-1	2.00002E+0	4.78062E-8
1.84500E-1	1.99998E+0	4.74393E-8
1.85000E-1	2.00001E+0	4.75948E-8
1.85500E-1	1.99999E+0	4.28066E-8
1.86000E-1	1.99999E+0	4.36709E-8
1.86500E-1	2.00000E+0	4.36461E-8
1.87000E-1	1.99995E+0	5.15932E-8
1.87500E-1	1.99998E+0	1.53340E-7
1.88000E-1	2.00006E+0	1.25388E-7
1.88500E-1	1.99999E+0	1.05638E-7
1.89000E-1	1.99994E+0	9.17272E-8
1.89500E-1	2.00006E+0	7.93587E-8
1.90000E-1	2.00001E+0	7.57271E-8
1.90500E-1	1.99996E+0	7.03916E-8
1.91000E-1	2.00001E+0	6.40986E-8
1.91500E-1	1.99997E+0	5.85393E-8
1.92000E-1	2.00007E+0	5.63504E-8
1.92500E-1	2.00001E+0	5.65680E-8
1.93000E-1	1.99995E+0	5.02811E-8
1.93500E-1	2.00005E+0	5.15808E-8
1.94000E-1	2.00001E+0	4.56297E-8
1.94500E-1	1.99999E+0	4.79803E-8
1.95000E-1	1.99998E+0	4.67118E-8
1.95500E-1	2.00001E+0	4.20044E-8
1.96000E-1	1.99997E+0	4.43798E-8
1.96500E-1	2.00006E+0	4.12146E-8
1.97000E-1	1.99989E+0	9.40778E-8
1.97500E-1	1.99998E+0	1.43620E-7
1.98000E-1	2.00005E+0	1.15140E-7
1.98500E-1	2.00003E+0	1.00713E-7
1.99000E-1	2.00001E+0	8.75670E-8
1.99500E-1	2.00003E+0	7.99308E-8
2.00000E-1	2.00000E+0	7.05471E-8
2.00500E-1	2.00001E+0	6.97511E-8
2.01000E-1	2.00003E+0	6.16734E-8
2.01500E-1	1.99998E+0	5.96399E-8
2.02000E-1	1.99999E+0	5.63131E-8
2.02500E-1	2.00000E+0	5.31043E-8
2.03000E-1	2.00000E+0	5.13196E-8
2.03500E-1	2.00001E+0	5.07786E-8
2.04000E-1	2.00001E+0	4.88944E-8
2.04500E-1	1.99998E+0	4.68672E-8
2.05000E-1	2.00001E+0	4.55987E-8
2.05500E-1	2.00000E+0	4.25330E-8
2.06000E-1	1.99998E+0	4.30118E-8
2.06500E-1	2.00002E+0	4.22656E-8
2.07000E-1	1.99991E+0	1.32097E-7
2.07500E-1	1.99997E+0	1.36164E-7
2.08000E-1	2.00006E+0	1.09108E-7
2.08500E-1	1.99997E+0	9.47431E-8
2.09000E-1	2.00002E+0	8.43956E-8
2.09500E-1	2.00004E+0	7.76175E-8
2.10000E-1	1.99996E+0	7.02424E-8
2.10500E-1	2.00000E+0	6.73943E-8
2.11000E-1	2.00002E+0	6.17107E-8
2.11500E-1	1.99997E+0	5.69536E-8
2.12000E-1	2.00000E+0	5.59275E-8
2.12500E-1	2.00001E+0	5.39625E-8
2.13000E-1	1.99994E+0	5.03433E-8
2.13500E-1	2.00003E+0	5.01630E-8
2.14000E-1	2.00003E+0	4.50203E-8
2.14500E-1	1.99999E+0	4.66060E-8
2.15000E-1	2.00002E+0	4.56484E-8
2.15500E-1	2.00000E+0	4.23588E-8
2.16000E-1	1.99996E+0	4.29185E-8
2.16500E-1	1.99996E+0	5.52248E-8
2.17000E-1	2.00003E+0	1.54359E-7
2.17500E-1	1.99992E+0	1.24952E-7
2.18000E-1	2.00012E+0	1.02976E-7
2.18500E-1	1.99998E+0	9.10183E-8
2.19000E-1	1.99996E+0	8.28534E-8
2.19500E-1	2.00004E+0	7.31775E-8
2.20000E-1	1.99999E+0	6.75871E-8
2.20500E-1	2.00004E+0	6.45463E-8
2.21000E-1	2.00001E+0	6.27678E-8
2.21500E-1	1.99996E+0	5.56415E-8
2.22000E-1	2.00002E+0	5.56352E-8
2.22500E-1	1.99999E+0	5.31790E-8
2.23000E-1	1.99997E+0	4.75823E-8
2.23500E-1	2.00005E+0	4.87887E-8
2.24000E-1	2.00000E+0	4.69978E-8
2.24500E-1	2.00002E+0	4.46286E-8
2.25000E-1	2.00002E+0	4.44482E-8
2.25500E-1	2.00000E+0	4.25640E-8
2.26000E-1	1.99995E+0	4.15442E-8
2.26500E-1	1.99998E+0	1.03312E-7
2.27000E-1	2.00002E+0	1.41400E-7
2.27500E-1	2.00001E+0	1.17080E-7
2.28000E-1	2.00003E+0	9.92142E-8
2.28500E-1	1.99995E+0	8.69017E-8
2.29000E-1	2.00003E+0	7.90042E-8
2.29500E-1	2.00001E+0	7.11938E-8
2.30000E-1	1.99999E+0	6.85696E-8
2.30500E-1	2.00004E+0	6.21398E-8
2.31000E-1	2.00000E+0	6.08587E-8
2.31500E-1	1.99996E+0	5.50134E-8
2.32000E-1	2.00007E+0	5.36702E-8
2.32500E-1	2.00001E+0	5.21032E-8
2.33000E-1	1.99994E+0	5.20721E-8
2.33500E-1	2.00003E+0	4.75575E-8
2.34000E-1	1.99998E+0	4.52380E-8
2.34500E-1	2.00006E+0	4.39943E-8
2.35000E-1	2.00001E+0	4.36212E-8
2.35500E-1	2.00001E+0	4.26387E-8
2.36000E-1	1.99995E+0	4.41187E-8
2.36500E-1	1.99999E+0	1.37103E-7
2.37000E-1	1.99999E+0	1.32209E-7
2.37500E-1	2.00004E+0	1.08573E-7
2.38000E-1	2.00002E+0	9.35119E-8
2.38500E-1	2.00001E+0	8.50237E-8
2.39000E-1	2.00006E+0	7.50306E-8
2.39500E-1	1.99997E+0	7.08767E-8
2.40000E-1	2.00000E+0	6.64056E-8
2.40500E-1	2.00006E+0	6.04919E-8
2.41000E-1	1.99996E+0	5.70468E-8
2.41500E-1	2.00003E+0	5.61265E-8
2.42000E-1	2.00003E+0	5.33220E-8
2.42500E-1	1.99994E+0	5.09403E-8
2.43000E-1	2.00003E+0	5.00946E-8
2.43500E-1	2.00000E+0	4.64755E-8
2.44000E-1	1.99999E+0	4.46161E-8
2.44500E-1	2.00001E+0	4.35714E-8
2.45000E-1	2.00001E+0	4.46659E-8
2.45500E-1	1.99993E+0	4.22842E-8
2.46000E-1	1.99988E+0	6.40737E-8
2.46500E-1	2.00003E+0	1.49721E-7
2.47000E-1	2.00001E+0	1.23466E-7
2.47500E-1	2.00006E+0	1.03754E-7
2.48000E-1	2.00000E+0	8.94637E-8
2.48500E-1	1.99998E+0	8.23684E-8
2.49000E-1	2.00005E+0	7.30905E-8
2.49500E-1	1.99999E+0	7.02673E-8
2.50000E-1	1.99991E+0	6.59392E-8
2.50500E-1	2.00004E+0	5.75754E-8
2.51000E-1	1.99994E+0	5.72956E-8
2.51500E-1	2.00011E+0	5.44164E-8
2.52000E-1	1.99997E+0	5.11766E-8
2.52500E-1	1.99996E+0	5.16679E-8
2.53000E-1	2.00004E+0	4.80363E-8
2.53500E-1	1.99998E+0	4.45104E-8
2.54000E-1	2.00004E+0	4.49457E-8
2.54500E-1	2.00001E+0	4.58412E-8
2.55000E-1	1.99998E+0	3.99088E-8
2.55500E-1	1.99998E+0	4.34346E-8
2.56000E-1	1.99996E+0	1.08480E-7
2.56500E-1	2.00002E+0	1.37203E-7
2.57000E-1	1.99999E+0	1.17546E-7
2.57500E-1	2.00004E+0	9.59122E-8
2.58000E-1	2.00003E+0	8.79588E-8
2.58500E-1	1.99995E+0	8.03101E-8
2.59000E-1	2.00004E+0	7.10695E-8
2.59500E-1	1.99998E+0	6.54977E-8
2.60000E-1	2.00004E+0	6.19967E-8
2.60500E-1	2.00000E+0	5.86263E-8
2.61000E-1	1.99996E+0	5.75816E-8
2.61500E-1	2.00004E+0	5.35645E-8
2.62000E-1	1.99999E+0	5.04117E-8
2.62500E-1	2.00001E+0	4.83099E-8
2.63000E-1	2.00007E+0	4.92924E-8
2.63500E-1	2.00000E+0	4.55240E-8
2.64000E-1	1.99997E+0	4.53561E-8
2.64500E-1	2.00002E+0	4.43798E-8
2.65000E-1	1.99998E+0	4.16810E-8
2.65500E-1	1.99994E+0	4.53997E-8
2.66000E-1	1.99998E+0	1.45063E-7
2.66500E-1	2.00003E+0	1.29336E-7
2.67000E-1	2.00004E+0	1.09730E-7
2.67500E-1	2.00001E+0	9.49235E-8
2.68000E-1	1.99995E+0	8.33136E-8
2.68500E-1	2.00002E+0	7.58390E-8
2.69000E-1	2.00001E+0	6.98879E-8
2.69500E-1	1.99991E+0	6.80162E-8
2.70000E-1	2.00007E+0	6.03551E-8
2.70500E-1	1.99999E+0	5.65431E-8
2.71000E-1	1.99998E+0	5.77122E-8
2.71500E-1	2.00003E+0	5.22462E-8
2.72000E-1	1.99999E+0	5.06045E-8
2.72500E-1	1.99998E+0	4.91370E-8
2.73000E-1	2.00002E+0	4.78808E-8
2.73500E-1	1.99992E+0	4.62827E-8
2.74000E-1	2.00006E+0	4.43239E-8
2.74500E-1	1.99996E+0	4.10467E-8
2.75000E-1	2.00001E+0	4.12768E-8
2.75500E-1	1.99997E+0	7.39424E-8
2.76000E-1	2.00001E+0	1.48813E-7
2.76500E-1	1.99995E+0	1.23224E-7
2.77000E-1	2.00004E+0	1.00744E-7
2.77500E-1	1.99995E+0	9.13292E-8
2.78000E-1	2.00006E+0	8.00738E-8
2.78500E-1	2.00006E+0	7.32894E-8
2.79000E-1	2.00000E+0	6.82712E-8
2.79500E-1	1.99993E+0	6.60574E-8
2.80000E-1	2.00006E+0	5.79920E-8
2.80500E-1	1.99995E+0	5.81599E-8
2.81000E-1	2.00006E+0	5.29862E-8
2.81500E-1	2.00002E+0	5.24763E-8
2.82000E-1	2.00000E+0	5.07662E-8
2.82500E-1	2.00003E+0	4.71470E-8
2.83000E-1	2.00002E+0	4.82850E-8
2.83500E-1	1.99993E+0	4.46472E-8
2.84000E-1	2.00003E+0	4.33351E-8
2.84500E-1	2.00000E+0	4.26698E-8
2.85000E-1	1.99995E+0	4.06923E-8
2.85500E-1	1.99998E+0	1.16887E-7
2.86000E-1	1.99998E+0	1.36656E-7
2.86500E-1	1.99998E+0	1.14232E-7
2.87000E-1	2.00007E+0	9.69009E-8
2.87500E-1	2.00000E+0	8.57264E-8
2.88000E-1	1.99999E+0	7.92716E-8
2.88500E-1	2.00006E+0	7.02859E-8
2.89000E-1	1.99997E+0	6.66854E-8
2.89500E-1	1.99995E+0	6.55102E-8
2.90000E-1	2.00003E+0	5.55171E-8
2.90500E-1	2.00001E+0	5.58405E-8
2.91000E-1	1.99997E+0	5.50383E-8
2.91500E-1	2.00004E+0	5.20161E-8
2.92000E-1	1.99993E+0	5.04553E-8
2.92500E-1	2.00000E+0	4.83472E-8
2.93000E-1	2.00000E+0	4.54494E-8
2.93500E-1	1.99996E+0	4.56173E-8
2.94000E-1	2.00005E+0	4.13204E-8
2.94500E-1	1.99999E+0	4.24335E-8
2.95000E-1	1.99995E+0	4.59966E-8
2.95500E-1	1.99998E+0	1.48831E-7
2.96000E-1	2.00002E+0	1.28453E-7
2.96500E-1	1.99999E+0	1.09506E-7
2.97000E-1	2.00005E+0	9.11924E-8
2.97500E-1	2.00002E+0	8.31706E-8
2.98000E-1	1.99998E+0	7.79409E-8
2.98500E-1	2.00000E+0	6.88557E-8
2.99000E-1	2.00002E+0	6.52179E-8
2.99500E-1	1.99995E+0	6.26248E-8
3.00000E-1	2.00006E+0	5.74448E-8
3.00500E-1	1.99996E+0	5.47211E-8
3.01000E-1	2.00007E+0	5.18358E-8
3.01500E-1	2.00002E+0	5.32474E-8
3.02000E-1	1.99999E+0	4.75948E-8
3.02500E-1	2.00001E+0	4.64941E-8
3.03000E-1	2.00003E+0	4.39943E-8
3.03500E-1	1.99998E+0	4.50701E-8
3.04000E-1	2.00003E+0	4.20355E-8
3.04500E-1	2.00003E+0	4.29931E-8
3.05000E-1	1.99989E+0	8.22502E-8
3.05500E-1	2.00002E+0	1.46170E-7
3.06000E-1	2.00004E+0	1.18641E-7
3.06500E-1	2.00002E+0	1.01627E-7
3.07000E-1	2.00000E+0	9.20878E-8
3.07500E-1	2.00003E+0	7.94644E-8
3.08000E-1	2.00001E+0	7.49187E-8
3.08500E-1	1.99993E+0	6.98755E-8
3.09000E-1	2.00005E+0	6.21708E-8
3.09500E-1	1.99999E+0	6.13873E-8
3.10000E-1	1.99993E+0	5.88377E-8
3.10500E-1	2.00009E+0	5.26006E-8
3.11000E-1	1.99995E+0	5.42610E-8
3.11500E-1	1.99996E+0	5.01692E-8
3.12000E-1	2.00002E+0	4.72901E-8
3.12500E-1	1.99999E+0	4.69232E-8
3.13000E-1	2.00001E+0	4.61521E-8
3.13500E-1	2.00002E+0	4.30677E-8
3.14000E-1	1.99996E+0	4.11835E-8
3.14500E-1	1.99997E+0	4.26387E-8
3.15000E-1	1.99997E+0	1.22434E-7
3.15500E-1	2.00001E+0	1.35567E-7
3.16000E-1	2.00007E+0	1.13448E-7
3.16500E-1	1.99999E+0	9.70875E-8
3.17000E-1	1.99996E+0	8.65223E-8
3.17500E-1	2.00009E+0	7.78600E-8
3.18000E-1	1.99998E+0	7.08891E-8
3.18500E-1	1.99998E+0	6.89738E-8
3.19000E-1	1.99998E+0	6.30850E-8
3.19500E-1	1.99999E+0	5.65494E-8
3.20000E-1	1.99998E+0	5.75754E-8
3.20500E-1	2.00002E+0	5.46714E-8
3.21000E-1	1.99998E+0	5.04304E-8
3.21500E-1	1.99998E+0	5.02065E-8
3.22000E-1	2.00005E+0	4.52753E-8
3.22500E-1	2.00001E+0	4.68548E-8
3.23000E-1	1.99995E+0	4.58847E-8
3.23500E-1	2.00001E+0	4.21723E-8
3.24000E-1	1.99994E+0	4.35341E-8
3.24500E-1	1.99998E+0	4.91370E-8
3.25000E-1	1.99996E+0	1.51978E-7
3.25500E-1	1.99999E+0	1.27601E-7
3.26000E-1	2.00005E+0	1.05420E-7
3.26500E-1	2.00003E+0	9.21500E-8
3.27000E-1	1.99996E+0	8.58134E-8
3.27500E-1	2.00006E+0	7.53229E-8
3.28000E-1	1.99997E+0	7.06155E-8
3.28500E-1	1.99999E+0	6.51806E-8
3.29000E-1	2.00000E+0	5.96959E-8
3.29500E-1	1.99996E+0	5.82781E-8
3.30000E-1	2.00004E+0	5.69846E-8
3.30500E-1	1.99997E+0	5.02438E-8
3.31000E-1	1.99997E+0	5.09030E-8
3.31500E-1	2.00006E+0	5.03122E-8
3.32000E-1	1.99998E+0	4.50825E-8
3.32500E-1	2.00000E+0	4.46286E-8
3.33000E-1	2.00008E+0	4.55738E-8
3.33500E-1	1.99998E+0	4.27071E-8
3.34000E-1	1.99998E+0	4.22656E-8
3.34500E-1	1.99995E+0	8.78282E-8
3.35000E-1	2.00002E+0	1.46953E-7
3.35500E-1	1.99994E+0	1.20736E-7
3.36000E-1	2.00008E+0	9.83996E-8
3.36500E-1	1.99996E+0	9.01353E-8
3.37000E-1	2.00006E+0	7.93027E-8
3.37500E-1	2.00002E+0	7.57955E-8
3.38000E-1	1.99995E+0	6.83147E-8
3.38500E-1	2.00000E+0	6.34456E-8
3.39000E-1	2.00001E+0	5.84522E-8
3.39500E-1	1.99999E+0	5.88440E-8
3.40000E-1	2.00004E+0	5.38008E-8
3.40500E-1	1.99999E+0	5.10522E-8
3.41000E-1	2.00001E+0	4.96096E-8
3.41500E-1	2.00006E+0	4.82353E-8
3.42000E-1	1.99998E+0	4.65314E-8
3.42500E-1	1.99998E+0	4.60713E-8
3.43000E-1	2.00004E+0	4.42928E-8
3.43500E-1	1.99996E+0	4.11027E-8
3.44000E-1	1.99997E+0	4.52877E-8
3.44500E-1	1.99994E+0	1.28976E-7
3.45000E-1	1.99996E+0	1.33789E-7
3.45500E-1	2.00001E+0	1.13106E-7
3.46000E-1	2.00001E+0	9.56324E-8
3.46500E-1	2.00005E+0	8.61554E-8
3.47000E-1	2.00003E+0	7.66909E-8
3.47500E-1	2.00002E+0	7.31713E-8
3.48000E-1	1.99996E+0	6.70275E-8
3.48500E-1	2.00003E+0	6.33897E-8
3.49000E-1	1.99995E+0	5.77868E-8
3.49500E-1	2.00002E+0	5.61016E-8
3.50000E-1	2.00002E+0	5.32163E-8
3.50500E-1	1.99996E+0	5.26193E-8
3.51000E-1	2.00001E+0	5.09527E-8
3.51500E-1	2.00000E+0	4.64257E-8
3.52000E-1	1.99998E+0	4.61148E-8
3.52500E-1	2.00000E+0	4.73336E-8
3.53000E-1	1.99997E+0	4.20479E-8
3.53500E-1	2.00001E+0	4.15567E-8
3.54000E-1	1.99998E+0	5.15124E-8
3.54500E-1	1.99999E+0	1.57295E-7
3.55000E-1	1.99997E+0	1.25730E-7
3.55500E-1	2.00004E+0	1.06328E-7
3.56000E-1	1.99999E+0	9.22682E-8
3.56500E-1	1.99997E+0	8.56704E-8
3.57000E-1	2.00005E+0	7.29039E-8
3.57500E-1	1.99999E+0	6.98382E-8
3.58000E-1	2.00002E+0	6.68844E-8
3.58500E-1	1.99999E+0	6.04421E-8
3.59000E-1	2.00004E+0	5.70531E-8
3.59500E-1	2.00000E+0	5.85952E-8
3.60000E-1	1.99999E+0	5.28369E-8
3.60500E-1	1.99995E+0	5.01133E-8
3.61000E-1	1.99998E+0	4.81420E-8
3.61500E-1	2.00002E+0	4.79368E-8
3.62000E-1	1.99996E+0	4.65812E-8
3.62500E-1	2.00004E+0	4.28252E-8
3.63000E-1	1.99998E+0	4.31299E-8
3.63500E-1	2.00000E+0	4.14696E-8
3.64000E-1	1.99991E+0	1.00041E-7
3.64500E-1	2.00000E+0	1.42806E-7
3.65000E-1	1.99996E+0	1.18865E-7
3.65500E-1	2.00001E+0	1.00047E-7
3.66000E-1	2.00000E+0	8.95507E-8
3.66500E-1	2.00002E+0	7.85876E-8
3.67000E-1	2.00005E+0	7.26987E-8
3.67500E-1	2.00000E+0	6.92972E-8
3.68000E-1	1.99994E+0	6.56159E-8
3.68500E-1	2.00005E+0	5.88067E-8
3.69000E-1	1.99999E+0	5.68665E-8
3.69500E-1	1.99995E+0	5.46963E-8
3.70000E-1	2.00006E+0	4.94914E-8
3.70500E-1	1.99997E+0	5.07413E-8
3.71000E-1	2.00002E+0	4.98832E-8
3.71500E-1	2.00004E+0	4.46597E-8
3.72000E-1	1.99997E+0	4.51074E-8
3.72500E-1	2.00001E+0	4.35777E-8
3.73000E-1	2.00006E+0	4.30615E-8
3.73500E-1	1.99996E+0	4.24148E-8
3.74000E-1	1.99997E+0	1.38160E-7
3.74500E-1	2.00003E+0	1.30910E-7
3.75000E-1	2.00001E+0	1.13056E-7
3.75500E-1	2.00005E+0	9.47493E-8
3.76000E-1	2.00001E+0	8.49428E-8
3.76500E-1	1.99999E+0	7.93338E-8
3.77000E-1	2.00003E+0	7.25121E-8
3.77500E-1	2.00001E+0	6.42602E-8
3.78000E-1	1.99995E+0	6.37565E-8
3.78500E-1	2.00004E+0	5.99695E-8
3.79000E-1	1.99999E+0	5.39936E-8
3.79500E-1	1.99998E+0	5.73702E-8
3.80000E-1	2.00004E+0	5.05050E-8
3.80500E-1	1.99998E+0	4.80487E-8
3.81000E-1	2.00000E+0	4.87638E-8
3.81500E-1	2.00001E+0	4.72279E-8
3.82000E-1	1.99997E+0	4.57479E-8
3.82500E-1	1.99998E+0	4.38824E-8
3.83000E-1	1.99998E+0	4.14074E-8
3.83500E-1	1.99987E+0	6.06598E-8
3.84000E-1	2.00009E+0	1.53881E-7
3.84500E-1	2.00000E+0	1.24617E-7
3.85000E-1	2.00000E+0	1.07105E-7
3.85500E-1	2.00006E+0	8.92584E-8
3.86000E-1	2.00000E+0	8.26731E-8
3.86500E-1	2.00002E+0	7.61064E-8
3.87000E-1	2.00000E+0	6.98755E-8
3.87500E-1	1.99996E+0	6.32529E-8
3.88000E-1	1.99998E+0	6.33399E-8
3.88500E-1	2.00000E+0	5.74386E-8
3.89000E-1	1.99997E+0	5.64436E-8
3.89500E-1	2.00001E+0	5.14564E-8
3.90000E-1	2.00003E+0	5.07102E-8
3.90500E-1	1.99999E+0	5.02874E-8
3.91000E-1	2.00002E+0	4.61956E-8
3.91500E-1	2.00002E+0	4.52380E-8
3.92000E-1	1.99996E+0	4.49208E-8
3.92500E-1	2.00002E+0	4.35279E-8
3.93000E-1	1.99998E+0	4.10778E-8
3.93500E-1	1.99987E+0	1.06086E-7
3.94000E-1	2.00006E+0	1.41556E-7
3.94500E-1	2.00001E+0	1.14331E-7
3.95000E-1	2.00005E+0	1.00812E-7
3.95500E-1	1.99999E+0	9.12484E-8
3.96000E-1	1.99999E+0	7.72755E-8
3.96500E-1	2.00003E+0	7.27236E-8
3.97000E-1	2.00004E+0	6.75312E-8
3.97500E-1	1.99998E+0	6.40426E-8
3.98000E-1	1.99998E+0	6.20403E-8
3.98500E-1	2.00005E+0	5.50569E-8
3.99000E-1	1.99998E+0	5.59586E-8
3.99500E-1	1.99999E+0	5.07786E-8
4.00000E-1	2.00005E+0	4.99205E-8
4.00500E-1	2.00000E+0	4.92924E-8
4.01000E-1	1.99995E+0	4.72154E-8
4.01500E-1	2.00007E+0	4.40378E-8
4.02000E-1	1.99999E+0	4.36647E-8
4.02500E-1	1.99998E+0	4.56484E-8
4.03000E-1	2.00001E+0	4.05804E-8
4.03500E-1	1.99989E+0	1.44074E-7
4.04000E-1	2.00006E+0	1.32272E-7
4.04500E-1	2.00001E+0	1.09238E-7
4.05000E-1	1.99999E+0	9.37295E-8
4.05500E-1	2.00001E+0	8.75048E-8
4.06000E-1	2.00000E+0	7.64546E-8
4.06500E-1	1.99996E+0	6.99937E-8
4.07000E-1	2.00005E+0	6.62812E-8
4.07500E-1	2.00003E+0	6.14060E-8
4.08000E-1	1.99997E+0	6.05292E-8
4.08500E-1	2.00006E+0	5.52000E-8
4.09000E-1	1.99996E+0	5.20223E-8
4.09500E-1	2.00001E+0	5.16181E-8
4.10000E-1	2.00006E+0	4.83286E-8
4.10500E-1	1.99997E+0	4.76010E-8
4.11000E-1	1.99999E+0	4.69854E-8
4.11500E-1	2.00003E+0	4.58350E-8
4.12000E-1	1.99997E+0	4.41746E-8
4.12500E-1	1.99995E+0	4.33414E-8
4.13000E-1	1.99991E+0	6.76058E-8
4.13500E-1	1.99999E+0	1.51437E-7
4.14000E-1	2.00003E+0	1.24480E-7
4.14500E-1	2.00004E+0	1.04009E-7
4.15000E-1	1.99997E+0	9.01415E-8
4.15500E-1	2.00003E+0	8.38857E-8
4.16000E-1	1.99998E+0	7.26179E-8
4.16500E-1	2.00002E+0	6.93345E-8
4.17000E-1	2.00004E+0	6.51370E-8
4.17500E-1	1.99997E+0	6.03488E-8
4.18000E-1	1.99999E+0	5.93539E-8
4.18500E-1	2.00003E+0	5.51378E-8
4.19000E-1	1.99999E+0	5.16057E-8
4.19500E-1	1.99996E+0	5.34837E-8
4.20000E-1	2.00001E+0	4.75886E-8
4.20500E-1	2.00002E+0	4.68734E-8
4.21000E-1	1.99993E+0	4.61832E-8
4.21500E-1	2.00004E+0	4.28066E-8
4.22000E-1	2.00001E+0	4.20355E-8
4.22500E-1	1.99999E+0	4.36274E-8
4.23000E-1	1.99996E+0	1.11521E-7
4.23500E-1	2.00001E+0	1.39696E-7
4.24000E-1	1.99998E+0	1.16110E-7
4.24500E-1	2.00001E+0	1.00719E-7
4.25000E-1	1.99998E+0	8.59564E-8
4.25500E-1	2.00003E+0	8.17590E-8
4.26000E-1	1.99998E+0	6.99688E-8
4.26500E-1	1.99995E+0	6.89427E-8
4.27000E-1	2.00004E+0	6.40488E-8
4.27500E-1	1.99999E+0	5.88315E-8
4.28000E-1	1.99995E+0	5.76189E-8
4.28500E-1	2.00006E+0	5.29862E-8
4.29000E-1	1.99999E+0	5.04428E-8
4.29500E-1	1.99997E+0	5.34028E-8
4.30000E-1	2.00004E+0	4.56111E-8
4.30500E-1	1.99993E+0	4.71035E-8
4.31000E-1	2.00004E+0	4.59531E-8
4.31500E-1	2.00001E+0	4.31983E-8
4.32000E-1	1.99995E+0	4.38948E-8
4.32500E-1	2.00000E+0	4.53064E-8
4.33000E-1	1.99992E+0	1.46126E-7
4.33500E-1	1.99996E+0	1.32576E-7
4.34000E-1	2.00004E+0	1.09723E-7
4.34500E-1	2.00002E+0	9.20754E-8
4.35000E-1	1.99999E+0	8.58010E-8
4.35500E-1	1.99999E+0	7.69335E-8
4.36000E-1	1.99998E+0	7.14239E-8
4.36500E-1	2.00000E+0	6.74752E-8
4.37000E-1	2.00003E+0	6.12132E-8
4.37500E-1	1.99998E+0	5.74386E-8
4.38000E-1	2.00001E+0	5.55482E-8
4.38500E-1	2.00002E+0	5.19726E-8
4.39000E-1	2.00000E+0	5.23146E-8
4.39500E-1	2.00000E+0	5.03433E-8
4.40000E-1	1.99999E+0	4.65563E-8
4.40500E-1	1.99994E+0	4.94292E-8
4.41000E-1	2.00006E+0	4.44545E-8
4.41500E-1	1.99996E+0	4.23775E-8
4.42000E-1	2.00000E+0	4.34657E-8
4.42500E-1	1.99995E+0	7.37869E-8
4.43000E-1	1.99999E+0	1.50628E-7
4.43500E-1	1.99999E+0	1.23168E-7
4.44000E-1	2.00006E+0	1.02174E-7
4.44500E-1	2.00001E+0	9.24610E-8
4.45000E-1	2.00000E+0	8.27291E-8
4.45500E-1	2.00002E+0	7.42906E-8
4.46000E-1	1.99999E+0	6.72202E-8
4.46500E-1	2.00006E+0	6.59952E-8
4.47000E-1	2.00000E+0	6.05230E-8
4.47500E-1	1.99999E+0	5.96897E-8
4.48000E-1	2.00003E+0	5.52124E-8
4.48500E-1	1.99995E+0	5.02190E-8
4.49000E-1	1.99996E+0	5.24079E-8
4.49500E-1	2.00002E+0	4.86892E-8
4.50000E-1	2.00000E+0	4.44918E-8
4.50500E-1	1.99999E+0	4.83845E-8
4.51000E-1	2.00002E+0	4.43239E-8
4.51500E-1	1.99995E+0	4.22842E-8
4.52000E-1	2.00001E+0	4.37145E-8
4.52500E-1	1.99993E+0	1.15538E-7
4.53000E-1	1.99998E+0	1.40343E-7
4.53500E-1	2.00001E+0	1.14586E-7
4.54000E-1	1.99998E+0	9.71994E-8
4.54500E-1	1.99996E+0	8.74551E-8
4.55000E-1	2.00004E+0	7.89296E-8
4.55500E-1	1.99998E+0	7.04663E-8
4.56000E-1	1.99996E+0	6.96516E-8
4.56500E-1	2.00003E+0	6.14308E-8
4.57000E-1	2.00003E+0	6.00752E-8
4.57500E-1	2.00000E+0	5.86761E-8
4.58000E-1	2.00001E+0	5.38754E-8
4.58500E-1	1.99998E+0	5.02065E-8
4.59000E-1	2.00003E+0	5.06045E-8
4.59500E-1	2.00002E+0	4.73523E-8
4.60000E-1	2.00003E+0	4.69481E-8
4.60500E-1	2.00001E+0	4.66434E-8
4.61000E-1	1.99995E+0	4.35279E-8
4.61500E-1	1.99996E+0	4.42057E-8
4.62000E-1	2.00003E+0	4.43985E-8
4.62500E-1	1.99995E+0	1.51163E-7
4.63000E-1	2.00003E+0	1.31376E-7
4.63500E-1	2.00006E+0	1.06328E-7
4.64000E-1	2.00000E+0	9.43576E-8
4.64500E-1	2.00002E+0	8.48433E-8
4.65000E-1	2.00001E+0	7.83513E-8
4.65500E-1	1.99997E+0	6.93221E-8
4.66000E-1	1.99999E+0	6.86318E-8
4.66500E-1	2.00002E+0	6.14557E-8
4.67000E-1	1.99998E+0	5.86947E-8
4.67500E-1	2.00004E+0	5.64125E-8
4.68000E-1	1.99998E+0	5.17985E-8
4.68500E-1	2.00003E+0	5.20969E-8
4.69000E-1	2.00001E+0	4.97215E-8
4.69500E-1	1.99996E+0	4.73149E-8
4.70000E-1	2.00004E+0	4.64133E-8
4.70500E-1	2.00004E+0	4.51323E-8
4.71000E-1	1.99998E+0	4.43239E-8
4.71500E-1	2.00000E+0	4.14385E-8
4.72000E-1	1.99989E+0	8.42775E-8
4.72500E-1	1.99998E+0	1.47295E-7
4.73000E-1	2.00007E+0	1.20388E-7
4.73500E-1	1.99999E+0	1.04158E-7
4.74000E-1	1.99998E+0	9.20630E-8
4.74500E-1	2.00003E+0	7.92592E-8
4.75000E-1	1.99998E+0	7.46575E-8
4.75500E-1	2.00003E+0	7.04725E-8
4.76000E-1	1.99999E+0	6.46955E-8
4.76500E-1	1.99995E+0	6.07655E-8
4.77000E-1	2.00001E+0	5.84833E-8
4.77500E-1	2.00001E+0	5.27188E-8
4.78000E-1	1.99999E+0	5.39687E-8
4.78500E-1	2.00004E+0	4.97650E-8
4.79000E-1	1.99998E+0	4.80425E-8
4.79500E-1	2.00002E+0	4.70849E-8
4.80000E-1	2.00004E+0	4.66123E-8
4.80500E-1	1.99999E+0	4.53623E-8
4.81000E-1	1.99999E+0	4.18924E-8
4.81500E-1	2.00000E+0	4.43425E-8
4.82000E-1	1.99991E+0	1.25189E-7
4.82500E-1	1.99999E+0	1.38204E-7
4.83000E-1	2.00004E+0	1.11863E-7
4.83500E-1	1.99995E+0	9.93075E-8
4.84000E-1	2.00003E+0	8.71939E-8
4.84500E-1	2.00005E+0	7.62681E-8
4.85000E-1	2.00002E+0	7.35631E-8
4.85500E-1	1.99997E+0	6.81965E-8
4.86000E-1	2.00006E+0	6.03053E-8
4.86500E-1	1.99996E+0	6.02182E-8
4.87000E-1	1.99999E+0	5.74075E-8
4.87500E-1	2.00000E+0	5.34899E-8
4.88000E-1	1.99997E+0	5.43667E-8
4.88500E-1	2.00004E+0	4.94168E-8
4.89000E-1	1.99996E+0	4.71719E-8
4.89500E-1	2.00000E+0	4.64630E-8
4.90000E-1	2.00006E+0	4.49892E-8
4.90500E-1	1.99998E+0	4.30242E-8
4.91000E-1	2.00001E+0	4.14261E-8
4.91500E-1	1.99998E+0	4.95909E-8
4.92000E-1	1.99997E+0	1.55174E-7
4.92500E-1	2.00003E+0	1.28634E-7
4.93000E-1	2.00001E+0	1.08113E-7
4.93500E-1	1.99998E+0	9.21500E-8
4.94000E-1	2.00003E+0	8.38111E-8
4.94500E-1	2.00001E+0	7.52669E-8
4.95000E-1	1.99998E+0	7.09078E-8
4.95500E-1	2.00004E+0	6.57962E-8
4.96000E-1	2.00000E+0	6.12070E-8
4.96500E-1	1.99996E+0	5.98949E-8
4.97000E-1	2.00002E+0	5.55109E-8
4.97500E-1	1.99998E+0	5.10647E-8
4.98000E-1	2.00005E+0	5.03060E-8
4.98500E-1	2.00003E+0	4.95785E-8
4.99000E-1	1.99999E+0	4.85027E-8
4.99500E-1	1.99996E+0	4.65128E-8
5.00000E-1	2.00006E+0	4.23277E-8
5.00500E-1	1.99997E+0	4.42244E-8
5.01000E-1	2.00004E+0	4.14136E-8
5.01500E-1	1.99993E+0	9.16090E-8
5.02000E-1	2.00001E+0	1.46636E-7
5.02500E-1	2.00001E+0	1.20798E-7
5.03000E-1	2.00004E+0	1.01310E-7
5.03500E-1	1.99996E+0	8.99860E-8
5.04000E-1	2.00003E+0	7.96447E-8
5.04500E-1	1.99998E+0	7.31713E-8
5.05000E-1	1.99998E+0	6.86505E-8
5.05500E-1	2.00008E+0	6.31596E-8
5.06000E-1	2.00000E+0	6.12629E-8
5.06500E-1	1.99994E+0	5.77993E-8
5.07000E-1	2.00004E+0	5.54487E-8
5.07500E-1	2.00002E+0	5.24576E-8
5.08000E-1	1.99999E+0	5.26566E-8
5.08500E-1	2.00003E+0	4.87079E-8
5.09000E-1	1.99996E+0	4.76818E-8
5.09500E-1	2.00002E+0	4.60837E-8
5.10000E-1	2.00001E+0	4.55302E-8
5.10500E-1	1.99993E+0	4.27879E-8
5.11000E-1	2.00001E+0	4.32854E-8
5.11500E-1	1.99993E+0	1.29436E-7
5.12000E-1	2.00000E+0	1.37228E-7
5.12500E-1	2.00005E+0	1.12298E-7
5.13000E-1	1.99999E+0	9.68014E-8
5.13500E-1	1.99997E+0	8.75048E-8
5.14000E-1	2.00003E+0	7.88674E-8
5.14500E-1	2.00001E+0	7.01802E-8
5.15000E-1	2.00003E+0	6.63123E-8
5.15500E-1	2.00004E+0	6.33648E-8
5.16000E-1	1.99997E+0	5.92855E-8
5.16500E-1	2.00003E+0	5.69473E-8
5.17000E-1	2.00002E+0	5.46714E-8
5.17500E-1	1.99999E+0	4.95349E-8
5.18000E-1	2.00004E+0	5.02936E-8
5.18500E-1	2.00005E+0	4.78560E-8
5.19000E-1	1.99996E+0	4.59344E-8
5.19500E-1	1.99998E+0	4.68361E-8
5.20000E-1	2.00002E+0	4.27008E-8
5.20500E-1	1.99994E+0	4.28066E-8
5.21000E-1	1.99995E+0	5.59399E-8
5.21500E-1	2.00000E+0	1.53626E-7
5.22000E-1	1.99995E+0	1.26557E-7
5.22500E-1	2.00011E+0	1.04904E-7
5.23000E-1	1.99997E+0	9.42270E-8
5.23500E-1	1.99997E+0	8.31768E-8
5.24000E-1	2.00002E+0	7.67967E-8
5.24500E-1	2.00001E+0	6.76244E-8
5.25000E-1	1.99996E+0	6.78794E-8
5.25500E-1	2.00003E+0	6.12754E-8
5.26000E-1	1.99998E+0	5.84709E-8
5.26500E-1	1.99997E+0	5.71090E-8
5.27000E-1	2.00001E+0	5.00822E-8
5.27500E-1	1.99998E+0	5.18047E-8
5.28000E-1	2.00004E+0	4.95287E-8
5.28500E-1	1.99999E+0	4.89504E-8
5.29000E-1	2.00001E+0	4.53561E-8
5.29500E-1	2.00003E+0	4.50514E-8
5.30000E-1	2.00001E+0	4.47281E-8
5.30500E-1	1.99998E+0	4.06425E-8
5.31000E-1	1.99991E+0	1.01845E-7
5.31500E-1	2.00001E+0	1.44696E-7
5.32000E-1	1.99993E+0	1.19225E-7
5.32500E-1	2.00009E+0	1.00794E-7
5.33000E-1	1.99996E+0	8.95258E-8
5.33500E-1	1.99996E+0	8.03536E-8
5.34000E-1	2.00004E+0	7.40108E-8
5.34500E-1	1.99996E+0	6.67103E-8
5.35000E-1	1.99999E+0	6.63745E-8
5.35500E-1	2.00004E+0	5.90989E-8
5.36000E-1	1.99997E+0	5.57036E-8
5.36500E-1	2.00006E+0	5.48952E-8
5.37000E-1	2.00000E+0	5.15248E-8
5.37500E-1	1.99998E+0	5.15808E-8
5.38000E-1	1.99998E+0	5.04180E-8
5.38500E-1	2.00001E+0	4.60029E-8
5.39000E-1	1.99995E+0	4.54432E-8
5.39500E-1	2.00007E+0	4.35341E-8
5.40000E-1	1.99997E+0	4.42119E-8
5.40500E-1	1.99995E+0	4.25267E-8
5.41000E-1	1.99999E+0	1.37184E-7
5.41500E-1	2.00001E+0	1.34131E-7
5.42000E-1	1.99998E+0	1.11446E-7
5.42500E-1	2.00006E+0	9.49110E-8
5.43000E-1	1.99999E+0	8.61492E-8
5.43500E-1	1.99999E+0	7.86560E-8
5.44000E-1	2.00005E+0	6.97885E-8
5.44500E-1	1.99999E+0	6.78048E-8
5.45000E-1	1.99996E+0	6.40737E-8
5.45500E-1	2.00004E+0	5.74946E-8
5.46000E-1	1.99998E+0	5.56912E-8
5.46500E-1	2.00001E+0	5.45719E-8
5.47000E-1	2.00003E+0	5.22337E-8
5.47500E-1	1.99997E+0	5.06729E-8
5.48000E-1	1.99998E+0	4.90188E-8
5.48500E-1	2.00000E+0	4.46410E-8
5.49000E-1	1.99998E+0	4.48338E-8
5.49500E-1	2.00005E+0	4.38202E-8
5.50000E-1	2.00001E+0	4.42741E-8
5.50500E-1	1.99987E+0	6.04545E-8
5.51000E-1	2.00004E+0	1.56716E-7
5.51500E-1	2.00004E+0	1.22981E-7
5.52000E-1	1.99995E+0	1.07000E-7
5.52500E-1	2.00004E+0	9.35305E-8
5.53000E-1	2.00001E+0	8.10314E-8
5.53500E-1	1.99999E+0	7.72071E-8
5.54000E-1	1.99999E+0	7.11690E-8
5.54500E-1	2.00003E+0	6.37130E-8
5.55000E-1	1.99997E+0	6.15677E-8
5.55500E-1	1.99999E+0	6.07344E-8
5.56000E-1	1.99999E+0	5.37324E-8
5.56500E-1	1.99998E+0	5.45532E-8
5.57000E-1	2.00002E+0	4.98459E-8
5.57500E-1	2.00004E+0	4.93733E-8
5.58000E-1	1.99992E+0	4.87949E-8
5.58500E-1	2.00007E+0	4.41746E-8
5.59000E-1	1.99996E+0	4.54494E-8
5.59500E-1	2.00002E+0	4.38202E-8
5.60000E-1	2.00003E+0	4.33414E-8
5.60500E-1	1.99991E+0	1.04338E-7
5.61000E-1	2.00001E+0	1.43005E-7
5.61500E-1	2.00004E+0	1.17926E-7
5.62000E-1	2.00000E+0	9.99293E-8
5.62500E-1	1.99996E+0	9.01974E-8
5.63000E-1	2.00004E+0	7.75988E-8
5.63500E-1	1.99999E+0	7.52731E-8
5.64000E-1	1.99999E+0	6.93407E-8
5.64500E-1	2.00002E+0	6.13127E-8
5.65000E-1	2.00001E+0	6.13998E-8
5.65500E-1	2.00001E+0	5.79050E-8
5.66000E-1	2.00001E+0	5.56912E-8
5.66500E-1	1.99993E+0	5.26069E-8
5.67000E-1	2.00001E+0	4.94106E-8
5.67500E-1	2.00003E+0	4.75264E-8
5.68000E-1	1.99997E+0	4.73958E-8
5.68500E-1	2.00007E+0	4.59220E-8
5.69000E-1	1.99997E+0	4.35155E-8
5.69500E-1	1.99995E+0	4.50950E-8
5.70000E-1	2.00004E+0	4.42306E-8
5.70500E-1	1.99994E+0	1.41686E-7
5.71000E-1	2.00004E+0	1.34367E-7
5.71500E-1	2.00001E+0	1.09021E-7
5.72000E-1	2.00000E+0	9.63102E-8
5.72500E-1	2.00001E+0	8.70509E-8
5.73000E-1	2.00004E+0	7.63551E-8
5.73500E-1	1.99997E+0	7.02486E-8
5.74000E-1	2.00004E+0	6.83333E-8
5.74500E-1	2.00001E+0	5.99633E-8
5.75000E-1	1.99994E+0	6.18848E-8
5.75500E-1	2.00004E+0	5.61016E-8
5.76000E-1	1.99999E+0	5.14502E-8
5.76500E-1	2.00003E+0	5.27872E-8
5.77000E-1	1.99999E+0	5.03496E-8
5.77500E-1	1.99999E+0	4.67366E-8
5.78000E-1	1.99997E+0	4.97215E-8
5.78500E-1	2.00002E+0	4.44109E-8
5.79000E-1	1.99997E+0	4.45539E-8
5.79500E-1	1.99996E+0	4.42617E-8
5.80000E-1	1.99994E+0	6.96641E-8
5.80500E-1	1.99998E+0	1.50398E-7
5.81000E-1	2.00002E+0	1.25487E-7
5.81500E-1	2.00005E+0	1.03940E-7
5.82000E-1	1.99995E+0	9.20692E-8
5.82500E-1	2.00003E+0	8.32701E-8
5.83000E-1	2.00001E+0	7.44026E-8
5.83500E-1	1.99996E+0	7.04352E-8
5.84000E-1	1.99999E+0	6.63621E-8
5.84500E-1	2.00002E+0	6.05976E-8
5.85000E-1	1.99994E+0	5.84273E-8
5.85500E-1	2.00004E+0	5.53865E-8
5.86000E-1	2.00002E+0	5.23021E-8
5.86500E-1	1.99997E+0	5.26566E-8
5.87000E-1	2.00003E+0	4.89877E-8
5.87500E-1	2.00000E+0	4.61397E-8
5.88000E-1	1.99996E+0	4.59904E-8
5.88500E-1	2.00004E+0	4.64630E-8
5.89000E-1	1.99998E+0	4.43674E-8
5.89500E-1	2.00000E+0	4.15007E-8
5.90000E-1	1.99995E+0	1.14139E-7
5.90500E-1	2.00000E+0	1.40691E-7
5.91000E-1	2.00004E+0	1.17397E-7
5.91500E-1	2.00004E+0	9.88535E-8
5.92000E-1	2.00002E+0	8.89040E-8
5.92500E-1	2.00001E+0	8.16968E-8
5.93000E-1	2.00001E+0	7.23069E-8
5.93500E-1	1.99994E+0	6.82649E-8
5.94000E-1	2.00005E+0	6.43162E-8
5.94500E-1	2.00001E+0	5.96213E-8
5.95000E-1	1.99998E+0	5.87507E-8
5.95500E-1	2.00000E+0	5.51813E-8
5.96000E-1	1.99999E+0	5.00573E-8
5.96500E-1	1.99996E+0	5.14067E-8
5.97000E-1	2.00009E+0	4.75637E-8
5.97500E-1	1.99994E+0	4.80612E-8
5.98000E-1	2.00006E+0	4.60588E-8
5.98500E-1	1.99999E+0	4.53872E-8
5.99000E-1	1.99996E+0	4.08788E-8
5.99500E-1	2.00002E+0	4.75699E-8
6.00000E-1	1.99994E+0	1.46767E-7
6.00500E-1	1.99997E+0	1.32601E-7
6.01000E-1	2.00005E+0	1.08088E-7
6.01500E-1	1.99995E+0	9.44757E-8
6.02000E-1	2.00001E+0	8.68084E-8
6.02500E-1	2.00004E+0	7.50679E-8
6.03000E-1	1.99992E+0	7.28977E-8
6.03500E-1	2.00006E+0	6.51433E-8
6.04000E-1	2.00000E+0	6.37939E-8
6.04500E-1	1.99999E+0	5.87009E-8
6.05000E-1	2.00004E+0	5.54860E-8
6.05500E-1	1.99999E+0	5.30919E-8
6.06000E-1	2.00003E+0	5.27934E-8
6.06500E-1	2.00003E+0	4.92986E-8
6.07000E-1	1.99995E+0	4.64630E-8
6.07500E-1	2.00004E+0	4.71160E-8
6.08000E-1	2.00002E+0	4.36834E-8
6.08500E-1	1.99995E+0	4.45229E-8
6.09000E-1	2.00008E+0	4.27195E-8
6.09500E-1	1.99991E+0	7.82456E-8
6.10000E-1	1.99999E+0	1.50187E-7
6.10500E-1	2.00004E+0	1.21041E-7
6.11000E-1	1.99998E+0	1.03853E-7
6.11500E-1	1.99998E+0	9.31823E-8
6.12000E-1	2.00002E+0	8.02666E-8
6.12500E-1	2.00000E+0	7.35195E-8
6.13000E-1	1.99997E+0	7.06963E-8
6.13500E-1	2.00003E+0	6.56532E-8
6.14000E-1	1.99999E+0	6.01250E-8
6.14500E-1	1.99999E+0	5.75692E-8
6.15000E-1	2.00004E+0	5.60954E-8
6.15500E-1	1.99993E+0	5.27561E-8
6.16000E-1	2.00008E+0	4.95785E-8
6.16500E-1	1.99998E+0	4.90188E-8
6.17000E-1	2.00001E+0	4.75823E-8
6.17500E-1	1.99999E+0	4.51882E-8
6.18000E-1	2.00001E+0	4.37766E-8
6.18500E-1	2.00000E+0	4.50079E-8
6.19000E-1	2.00001E+0	4.14945E-8
6.19500E-1	1.99992E+0	1.18417E-7
6.20000E-1	1.99999E+0	1.39305E-7
6.20500E-1	2.00005E+0	1.14922E-7
6.21000E-1	2.00000E+0	9.75290E-8
6.21500E-1	1.99997E+0	8.76541E-8
6.22000E-1	2.00008E+0	7.75988E-8
6.22500E-1	2.00001E+0	7.33268E-8
6.23000E-1	1.99998E+0	6.80970E-8
6.23500E-1	2.00006E+0	6.19159E-8
6.24000E-1	1.99998E+0	6.06908E-8
6.24500E-1	2.00003E+0	5.54176E-8
6.25000E-1	2.00001E+0	5.43418E-8
6.25500E-1	1.99997E+0	5.38505E-8
6.26000E-1	2.00003E+0	4.78684E-8
6.26500E-1	1.99999E+0	4.77689E-8
6.27000E-1	1.99997E+0	4.75637E-8
6.27500E-1	1.99998E+0	4.70849E-8
6.28000E-1	1.99998E+0	4.20230E-8
6.28500E-1	1.99998E+0	4.26262E-8
6.29000E-1	2.00006E+0	4.72901E-8
6.29500E-1	1.99993E+0	1.52867E-7
6.30000E-1	2.00003E+0	1.31183E-7
6.30500E-1	2.00005E+0	1.09083E-7
6.31000E-1	1.99997E+0	9.27035E-8
6.31500E-1	2.00003E+0	8.24741E-8
6.32000E-1	2.00004E+0	7.85938E-8
6.32500E-1	1.99998E+0	6.91293E-8
6.33000E-1	2.00002E+0	6.59454E-8
6.33500E-1	2.00001E+0	6.09582E-8
6.34000E-1	2.00004E+0	5.76873E-8
6.34500E-1	2.00002E+0	5.82843E-8
6.35000E-1	2.00001E+0	5.12326E-8
6.35500E-1	1.99998E+0	5.09403E-8
6.36000E-1	2.00003E+0	5.09030E-8
6.36500E-1	2.00000E+0	4.66620E-8
6.37000E-1	1.99996E+0	4.54432E-8
6.37500E-1	2.00003E+0	4.45602E-8
6.38000E-1	2.00001E+0	4.25330E-8
6.38500E-1	1.99994E+0	4.42368E-8
6.39000E-1	1.99994E+0	8.55460E-8
6.39500E-1	2.00004E+0	1.46331E-7
6.40000E-1	1.99995E+0	1.23783E-7
6.40500E-1	2.00006E+0	1.01484E-7
6.41000E-1	1.99999E+0	9.07633E-8
6.41500E-1	1.99998E+0	8.34193E-8
6.42000E-1	2.00005E+0	7.31215E-8
6.42500E-1	1.99996E+0	6.77612E-8
6.43000E-1	2.00003E+0	6.37690E-8
6.43500E-1	2.00001E+0	6.30414E-8
6.44000E-1	2.00000E+0	5.70220E-8
6.44500E-1	1.99995E+0	5.59275E-8
6.45000E-1	2.00003E+0	5.30359E-8
6.45500E-1	1.99998E+0	5.05734E-8
6.46000E-1	1.99999E+0	4.87638E-8
6.46500E-1	2.00004E+0	4.48649E-8
6.47000E-1	1.99996E+0	4.52691E-8
6.47500E-1	2.00004E+0	4.44234E-8
6.48000E-1	1.99999E+0	4.14758E-8
6.48500E-1	2.00001E+0	4.35590E-8
6.49000E-1	1.99992E+0	1.27993E-7
6.49500E-1	2.00004E+0	1.35822E-7
6.50000E-1	1.99999E+0	1.14400E-7
6.50500E-1	2.00004E+0	9.80513E-8
6.51000E-1	2.00002E+0	8.82759E-8
6.51500E-1	1.99991E+0	7.86808E-8
6.52000E-1	2.00003E+0	7.19276E-8
6.52500E-1	2.00003E+0	6.69404E-8
6.53000E-1	1.99995E+0	6.47204E-8
6.53500E-1	2.00003E+0	5.71463E-8
6.54000E-1	1.99999E+0	5.71774E-8
6.54500E-1	2.00001E+0	5.56415E-8
6.55000E-1	2.00003E+0	5.00511E-8
6.55500E-1	2.00000E+0	5.10895E-8
6.56000E-1	2.00001E+0	4.75202E-8
6.56500E-1	2.00001E+0	4.73087E-8
6.57000E-1	2.00003E+0	4.36958E-8
6.57500E-1	1.99998E+0	4.65128E-8
6.58000E-1	2.00003E+0	4.24583E-8
6.58500E-1	1.99994E+0	4.88260E-8
6.59000E-1	1.99994E+0	1.57780E-7
6.59500E-1	2.00004E+0	1.24635E-7
6.60000E-1	1.99999E+0	1.07665E-7
6.60500E-1	2.00004E+0	9.36425E-8
6.61000E-1	2.00003E+0	8.25301E-8
6.61500E-1	1.99999E+0	7.68588E-8
6.62000E-1	2.00003E+0	7.07088E-8
6.62500E-1	2.00000E+0	6.50500E-8
6.63000E-1	1.99999E+0	6.29544E-8
6.63500E-1	2.00003E+0	5.72645E-8
6.64000E-1	2.00002E+0	5.54611E-8
6.64500E-1	1.99992E+0	5.59275E-8
6.65000E-1	2.00003E+0	5.12139E-8
6.65500E-1	2.00000E+0	4.75077E-8
6.66000E-1	1.99998E+0	4.90188E-8
6.66500E-1	2.00005E+0	4.58287E-8
6.67000E-1	2.00001E+0	4.43114E-8
6.67500E-1	1.99997E+0	4.55800E-8
6.68000E-1	2.00004E+0	4.07234E-8
6.68500E-1	1.99984E+0	9.47183E-8
6.69000E-1	2.00002E+0	1.46817E-7
6.69500E-1	2.00002E+0	1.18939E-7
6.70000E-1	1.99995E+0	1.01372E-7
6.70500E-1	2.00005E+0	9.07073E-8
6.71000E-1	2.00004E+0	7.86435E-8
6.71500E-1	1.99993E+0	7.65541E-8
6.72000E-1	2.00005E+0	6.74938E-8
6.72500E-1	2.00000E+0	6.36819E-8
6.73000E-1	1.99999E+0	6.29730E-8
6.73500E-1	1.99999E+0	5.83341E-8
6.74000E-1	2.00000E+0	5.26379E-8
6.74500E-1	1.99996E+0	5.44102E-8
6.75000E-1	2.00004E+0	4.91183E-8
6.75500E-1	2.00000E+0	4.77378E-8
6.76000E-1	1.99998E+0	4.83970E-8
6.76500E-1	2.00001E+0	4.72279E-8
6.77000E-1	1.99997E+0	4.26014E-8
6.77500E-1	2.00002E+0	4.36212E-8
6.78000E-1	2.00000E+0	4.23277E-8
6.78500E-1	1.99993E+0	1.33490E-7
6.79000E-1	2.00001E+0	1.33484E-7
6.79500E-1	2.00006E+0	1.13249E-7
6.80000E-1	1.99994E+0	9.91023E-8
6.80500E-1	2.00001E+0	8.71193E-8
6.81000E-1	2.00003E+0	7.76175E-8
6.81500E-1	1.99999E+0	7.22634E-8
6.82000E-1	1.99997E+0	6.83085E-8
6.82500E-1	1.99999E+0	6.01312E-8
6.83000E-1	2.00000E+0	6.00193E-8
6.83500E-1	2.00004E+0	5.63006E-8
6.84000E-1	2.00001E+0	5.29053E-8
6.84500E-1	1.99996E+0	5.29116E-8
6.85000E-1	2.00006E+0	4.88571E-8
6.85500E-1	1.99997E+0	4.82726E-8
6.86000E-1	1.99993E+0	4.72154E-8
6.86500E-1	2.00003E+0	4.49146E-8
6.87000E-1	2.00000E+0	4.07856E-8
6.87500E-1	1.99999E+0	4.36461E-8
6.88000E-1	1.99998E+0	5.53430E-8
6.88500E-1	2.00001E+0	1.55815E-7
6.89000E-1	2.00000E+0	1.27564E-7
6.89500E-1	2.00009E+0	1.05744E-7
6.90000E-1	1.99997E+0	9.37793E-8
6.90500E-1	1.99997E+0	8.29405E-8
6.91000E-1	2.00001E+0	7.45704E-8
6.91500E-1	2.00001E+0	7.06031E-8
6.92000E-1	1.99995E+0	6.62004E-8
6.92500E-1	2.00006E+0	6.21335E-8
6.93000E-1	1.99998E+0	5.77620E-8
6.93500E-1	2.00000E+0	5.70531E-8
6.94000E-1	2.00001E+0	5.50258E-8
6.94500E-1	1.99994E+0	5.05175E-8
6.95000E-1	2.00008E+0	4.76196E-8
6.95500E-1	1.99999E+0	4.85400E-8
6.96000E-1	1.99998E+0	4.66620E-8
6.96500E-1	2.00005E+0	4.25143E-8
6.97000E-1	2.00001E+0	4.43176E-8
6.97500E-1	1.99995E+0	4.39819E-8
6.98000E-1	1.99998E+0	9.84307E-8
6.98500E-1	2.00003E+0	1.42644E-7
6.99000E-1	2.00004E+0	1.19263E-7
6.99500E-1	2.00003E+0	1.00215E-7
7.00000E-1	1.99995E+0	9.00482E-8
7.00500E-1	2.00005E+0	7.88736E-8
7.01000E-1	2.00000E+0	7.26116E-8
7.01500E-1	1.99999E+0	6.92661E-8
7.02000E-1	2.00002E+0	6.28922E-8
7.02500E-1	2.00003E+0	5.99198E-8
7.03000E-1	1.99998E+0	5.90678E-8
7.03500E-1	2.00003E+0	5.54549E-8
7.04000E-1	1.99999E+0	5.14316E-8
7.04500E-1	1.99997E+0	4.98521E-8
7.05000E-1	2.00004E+0	4.78435E-8
7.05500E-1	1.99999E+0	4.67739E-8
7.06000E-1	2.00001E+0	4.84902E-8
7.06500E-1	2.00001E+0	4.19360E-8
7.07000E-1	1.99997E+0	4.54867E-8
7.07500E-1	2.00001E+0	4.15256E-8
7.08000E-1	1.99993E+0	1.39547E-7
7.08500E-1	1.99999E+0	1.35891E-7
7.09000E-1	2.00006E+0	1.10538E-7
7.09500E-1	1.99998E+0	9.41772E-8
7.10000E-1	2.00000E+0	8.76914E-8
7.10500E-1	2.00005E+0	7.54099E-8
7.11000E-1	1.99996E+0	7.14115E-8
7.11500E-1	2.00002E+0	6.73446E-8
7.12000E-1	2.00004E+0	6.26124E-8
7.12500E-1	1.99998E+0	5.90492E-8
7.13000E-1	2.00001E+0	5.67857E-8
7.13500E-1	2.00001E+0	5.17985E-8
7.14000E-1	1.99997E+0	5.21716E-8
7.14500E-1	2.00004E+0	4.97028E-8
7.15000E-1	2.00002E+0	4.47032E-8
7.15500E-1	2.00001E+0	4.60526E-8
7.16000E-1	2.00001E+0	4.69232E-8
7.16500E-1	2.00001E+0	4.30366E-8
7.17000E-1	1.99996E+0	4.45726E-8
7.17500E-1	1.99992E+0	6.46271E-8
7.18000E-1	2.00002E+0	1.50610E-7
7.18500E-1	2.00004E+0	1.25481E-7
7.19000E-1	2.00003E+0	1.05545E-7
7.19500E-1	2.00001E+0	9.25169E-8
7.20000E-1	2.00000E+0	8.15662E-8
7.20500E-1	2.00006E+0	7.59385E-8
7.21000E-1	1.99995E+0	7.13369E-8
7.21500E-1	1.99998E+0	6.56097E-8
7.22000E-1	2.00002E+0	5.81413E-8
7.22500E-1	1.99996E+0	6.03240E-8
7.23000E-1	2.00000E+0	5.46527E-8
7.23500E-1	1.99998E+0	5.09838E-8
7.24000E-1	1.99996E+0	5.23270E-8
7.24500E-1	2.00005E+0	4.73274E-8
7.25000E-1	1.99996E+0	4.80487E-8
7.25500E-1	2.00002E+0	4.61894E-8
7.26000E-1	2.00000E+0	4.56422E-8
7.26500E-1	1.99998E+0	4.11089E-8
7.27000E-1	2.00000E+0	4.48027E-8
7.27500E-1	1.99996E+0	1.05426E-7
7.28000E-1	2.00002E+0	1.43682E-7
7.28500E-1	2.00004E+0	1.17677E-7
7.29000E-1	2.00001E+0	9.82752E-8
7.29500E-1	2.00000E+0	9.02347E-8
7.30000E-1	2.00001E+0	8.15662E-8
7.30500E-1	2.00003E+0	7.10570E-8
7.31000E-1	1.99999E+0	6.85323E-8
7.31500E-1	2.00004E+0	6.49878E-8
7.32000E-1	2.00001E+0	5.81351E-8
7.32500E-1	1.99999E+0	5.69287E-8
7.33000E-1	2.00005E+0	5.48642E-8
7.33500E-1	2.00000E+0	5.17922E-8
7.34000E-1	2.00001E+0	5.17922E-8
7.34500E-1	2.00003E+0	4.93919E-8
7.35000E-1	1.99999E+0	4.47529E-8
7.35500E-1	1.99998E+0	4.85835E-8
7.36000E-1	2.00004E+0	4.28812E-8
7.36500E-1	1.99998E+0	4.26822E-8
7.37000E-1	1.99996E+0	4.38575E-8
7.37500E-1	1.99997E+0	1.45486E-7
7.38000E-1	1.99997E+0	1.31376E-7
7.38500E-1	2.00002E+0	1.10090E-7
7.39000E-1	2.00000E+0	9.53836E-8
7.39500E-1	2.00001E+0	8.43894E-8
7.40000E-1	1.99999E+0	7.92032E-8
7.40500E-1	2.00002E+0	7.03854E-8
7.41000E-1	1.99999E+0	6.41110E-8
7.41500E-1	2.00002E+0	6.32777E-8
7.42000E-1	2.00003E+0	6.03177E-8
7.42500E-1	1.99998E+0	5.56974E-8
7.43000E-1	1.99995E+0	5.55544E-8
7.43500E-1	2.00005E+0	4.84405E-8
7.44000E-1	1.99999E+0	4.91370E-8
7.44500E-1	1.99998E+0	5.09154E-8
7.45000E-1	2.00001E+0	4.38015E-8
7.45500E-1	1.99995E+0	4.61770E-8
7.46000E-1	2.00003E+0	4.41435E-8
7.46500E-1	2.00001E+0	3.95543E-8
7.47000E-1	1.99989E+0	7.25992E-8
7.47500E-1	2.00007E+0	1.53514E-7
7.48000E-1	2.00002E+0	1.25108E-7
7.48500E-1	2.00000E+0	1.04966E-7
7.49000E-1	2.00002E+0	9.32818E-8
7.49500E-1	1.99997E+0	8.16906E-8
7.50000E-1	1.99995E+0	7.60691E-8
7.50500E-1	2.00005E+0	6.82774E-8
7.51000E-1	1.99998E+0	6.57838E-8
7.51500E-1	2.00001E+0	6.09023E-8
7.52000E-1	2.00002E+0	5.97643E-8
7.52500E-1	1.99998E+0	5.49388E-8
7.53000E-1	1.99998E+0	5.26877E-8
7.53500E-1	2.00006E+0	5.09590E-8
7.54000E-1	1.99995E+0	4.92302E-8
7.54500E-1	1.99998E+0	4.83286E-8
7.55000E-1	2.00006E+0	4.53748E-8
7.55500E-1	1.99998E+0	4.59842E-8
7.56000E-1	1.99999E+0	4.32045E-8
7.56500E-1	2.00002E+0	4.11587E-8
7.57000E-1	1.99990E+0	1.18255E-7
7.57500E-1	2.00001E+0	1.39168E-7
7.58000E-1	2.00006E+0	1.15351E-7
7.58500E-1	1.99998E+0	9.96619E-8
7.59000E-1	2.00001E+0	9.10618E-8
7.59500E-1	2.00005E+0	7.68962E-8
7.60000E-1	2.00000E+0	7.32646E-8
7.60500E-1	1.99999E+0	7.06155E-8
7.61000E-1	2.00003E+0	6.26497E-8
7.61500E-1	1.99995E+0	5.94036E-8
7.62000E-1	2.00003E+0	5.74821E-8
7.62500E-1	2.00000E+0	5.51626E-8
7.63000E-1	1.99996E+0	5.16679E-8
7.63500E-1	2.00001E+0	5.09092E-8
7.64000E-1	1.99999E+0	4.75575E-8
7.64500E-1	1.99999E+0	4.50763E-8
7.65000E-1	2.00002E+0	4.64941E-8
7.65500E-1	2.00001E+0	4.49271E-8
7.66000E-1	1.99998E+0	4.31237E-8
7.66500E-1	2.00002E+0	4.47965E-8
7.67000E-1	1.99994E+0	1.51182E-7
7.67500E-1	1.99996E+0	1.31681E-7
7.68000E-1	2.00007E+0	1.08001E-7
7.68500E-1	1.99997E+0	9.33875E-8
7.69000E-1	2.00003E+0	8.61741E-8
7.69500E-1	2.00005E+0	7.40916E-8
7.70000E-1	1.99999E+0	7.23194E-8
7.70500E-1	1.99998E+0	6.69280E-8
7.71000E-1	2.00002E+0	5.89310E-8
7.71500E-1	1.99997E+0	6.11883E-8
7.72000E-1	2.00004E+0	5.47398E-8
7.72500E-1	2.00000E+0	5.46092E-8
7.73000E-1	1.99997E+0	5.21467E-8
7.73500E-1	2.00004E+0	4.93919E-8
7.74000E-1	2.00002E+0	4.59718E-8
7.74500E-1	1.99998E+0	4.86706E-8
7.75000E-1	2.00002E+0	4.42492E-8
7.75500E-1	1.99998E+0	4.14572E-8
7.76000E-1	1.99999E+0	4.43301E-8
7.76500E-1	1.99991E+0	8.10439E-8
7.77000E-1	1.99997E+0	1.47843E-7
7.77500E-1	2.00004E+0	1.23199E-7
7.78000E-1	2.00006E+0	1.03573E-7
7.78500E-1	1.99996E+0	9.08379E-8
7.79000E-1	1.99999E+0	8.37240E-8
7.79500E-1	2.00003E+0	7.43901E-8
7.80000E-1	1.99996E+0	7.06155E-8
7.80500E-1	1.99999E+0	6.34270E-8
7.81000E-1	2.00004E+0	6.22517E-8
7.81500E-1	2.00001E+0	5.82035E-8
7.82000E-1	1.99996E+0	5.62509E-8
7.82500E-1	2.00000E+0	5.33966E-8
7.83000E-1	1.99997E+0	4.94354E-8
7.83500E-1	2.00004E+0	4.92800E-8
7.84000E-1	2.00001E+0	4.67615E-8
7.84500E-1	2.00000E+0	4.53375E-8
7.85000E-1	1.99998E+0	4.77751E-8
7.85500E-1	2.00002E+0	4.03938E-8
7.86000E-1	1.99998E+0	4.32854E-8
7.86500E-1	1.99992E+0	1.23746E-7
7.87000E-1	2.00001E+0	1.38938E-7
7.87500E-1	1.99998E+0	1.14823E-7
7.88000E-1	2.00001E+0	1.00141E-7
7.88500E-1	1.99999E+0	8.45324E-8
7.89000E-1	1.99998E+0	7.97069E-8
7.89500E-1	2.00008E+0	7.17286E-8
7.90000E-1	2.00000E+0	6.70399E-8
7.90500E-1	2.00001E+0	6.41607E-8
7.91000E-1	2.00004E+0	6.06660E-8
7.91500E-1	1.99999E+0	5.67421E-8
7.92000E-1	1.99994E+0	5.61949E-8
7.92500E-1	2.00004E+0	4.92364E-8
7.93000E-1	1.99998E+0	5.05921E-8
7.93500E-1	2.00001E+0	4.82664E-8
7.94000E-1	2.00007E+0	4.71595E-8
7.94500E-1	1.99993E+0	4.59096E-8
7.95000E-1	1.99999E+0	4.39943E-8
7.95500E-1	2.00006E+0	4.01202E-8
7.96000E-1	1.99997E+0	4.93235E-8
7.96500E-1	1.99991E+0	1.56269E-7
7.97000E-1	2.00002E+0	1.29511E-7
7.97500E-1	1.99999E+0	1.08604E-7
7.98000E-1	2.00000E+0	9.49732E-8
7.98500E-1	2.00003E+0	8.29467E-8
7.99000E-1	1.99993E+0	7.65293E-8
7.99500E-1	2.00006E+0	7.09016E-8
8.00000E-1	2.00000E+0	6.36944E-8
8.00500E-1	1.99999E+0	6.20776E-8
8.01000E-1	2.00000E+0	5.99633E-8
8.01500E-1	2.00001E+0	5.67608E-8
8.02000E-1	1.99998E+0	5.40620E-8
8.02500E-1	2.00003E+0	5.01692E-8
8.03000E-1	2.00001E+0	4.76383E-8
8.03500E-1	1.99995E+0	4.87141E-8
8.04000E-1	2.00007E+0	4.48835E-8
8.04500E-1	1.99999E+0	4.56235E-8
8.05000E-1	1.99996E+0	4.48338E-8
8.05500E-1	2.00004E+0	4.21163E-8
8.06000E-1	1.99987E+0	8.63980E-8
8.06500E-1	2.00005E+0	1.47948E-7
8.07000E-1	2.00005E+0	1.19555E-7
8.07500E-1	1.99999E+0	1.03797E-7
8.08000E-1	2.00001E+0	9.03342E-8
8.08500E-1	2.00003E+0	8.10812E-8
8.09000E-1	1.99998E+0	7.28790E-8
8.09500E-1	1.99999E+0	7.15980E-8
8.10000E-1	2.00006E+0	6.16361E-8
8.10500E-1	1.99999E+0	6.08028E-8
8.11000E-1	2.00001E+0	5.83900E-8
8.11500E-1	2.00001E+0	5.67421E-8
8.12000E-1	1.99998E+0	5.24949E-8
8.12500E-1	1.99998E+0	5.24079E-8
8.13000E-1	2.00002E+0	4.73398E-8
8.13500E-1	2.00000E+0	4.59904E-8
8.14000E-1	1.99998E+0	4.75139E-8
8.14500E-1	2.00000E+0	4.50079E-8
8.15000E-1	1.99995E+0	4.23277E-8
8.15500E-1	2.00002E+0	4.24645E-8
8.16000E-1	1.99992E+0	1.29113E-7
8.16500E-1	2.00001E+0	1.38353E-7
8.17000E-1	2.00000E+0	1.13896E-7
8.17500E-1	2.00000E+0	9.53463E-8
8.18000E-1	1.99997E+0	8.94077E-8
8.18500E-1	2.00002E+0	7.86187E-8
8.19000E-1	2.00001E+0	7.20271E-8
8.19500E-1	1.99995E+0	6.79043E-8
8.20000E-1	2.00005E+0	6.31098E-8
8.20500E-1	1.99999E+0	5.90865E-8
8.21000E-1	1.99998E+0	5.51564E-8
8.21500E-1	2.00008E+0	5.30235E-8
8.22000E-1	2.00000E+0	5.13943E-8
8.22500E-1	1.99998E+0	5.23208E-8
8.23000E-1	2.00003E+0	4.73523E-8
8.23500E-1	1.99997E+0	4.56733E-8
8.24000E-1	2.00000E+0	4.65439E-8
8.24500E-1	2.00003E+0	4.26014E-8
8.25000E-1	1.99999E+0	4.09535E-8
8.25500E-1	1.99991E+0	5.36453E-8
8.26000E-1	2.00001E+0	1.55547E-7
8.26500E-1	2.00001E+0	1.27514E-7
8.27000E-1	2.00001E+0	1.06689E-7
8.27500E-1	2.00007E+0	9.21873E-8
8.28000E-1	1.99999E+0	8.25860E-8
8.28500E-1	1.99998E+0	7.83824E-8
8.29000E-1	2.00006E+0	6.82401E-8
8.29500E-1	1.99995E+0	6.64865E-8
8.30000E-1	2.00003E+0	6.25440E-8
8.30500E-1	2.00006E+0	5.68976E-8
8.31000E-1	2.00000E+0	5.64499E-8
8.31500E-1	2.00001E+0	5.16492E-8
8.32000E-1	2.00004E+0	5.23270E-8
8.32500E-1	2.00000E+0	4.99578E-8
8.33000E-1	1.99999E+0	4.88198E-8
8.33500E-1	2.00004E+0	4.44855E-8
8.34000E-1	1.99997E+0	4.62392E-8
8.34500E-1	2.00005E+0	4.22531E-8
8.35000E-1	2.00000E+0	4.25889E-8
8.35500E-1	1.99993E+0	9.44446E-8
8.36000E-1	2.00008E+0	1.44963E-7
8.36500E-1	2.00001E+0	1.20251E-7
8.37000E-1	1.99998E+0	1.03710E-7
8.37500E-1	2.00004E+0	8.87299E-8
8.38000E-1	2.00003E+0	8.01546E-8
8.38500E-1	1.99997E+0	7.49311E-8
8.39000E-1	2.00004E+0	6.81530E-8
8.39500E-1	2.00000E+0	6.47577E-8
8.40000E-1	1.99999E+0	6.20465E-8
8.40500E-1	2.00001E+0	5.57410E-8
8.41000E-1	1.99998E+0	5.50942E-8
8.41500E-1	2.00006E+0	5.20534E-8
8.42000E-1	1.99999E+0	5.05112E-8
8.42500E-1	2.00003E+0	4.97961E-8
8.43000E-1	2.00000E+0	4.89504E-8
8.43500E-1	1.99995E+0	4.46534E-8
8.44000E-1	2.00002E+0	4.50017E-8
8.44500E-1	2.00003E+0	4.27071E-8
8.45000E-1	1.99997E+0	4.22096E-8
8.45500E-1	1.99988E+0	1.37930E-7
8.46000E-1	2.00004E+0	1.33553E-7
8.46500E-1	1.99997E+0	1.12864E-7
8.47000E-1	2.00003E+0	9.84804E-8
8.47500E-1	2.00000E+0	8.36059E-8
8.48000E-1	1.99994E+0	8.11620E-8
8.48500E-1	2.00004E+0	7.11565E-8
8.49000E-1	1.99999E+0	6.61817E-8
8.49500E-1	1.99999E+0	6.48075E-8
8.50000E-1	2.00003E+0	5.71028E-8
8.50500E-1	2.00000E+0	5.79174E-8
8.51000E-1	2.00000E+0	5.46527E-8
8.51500E-1	2.00001E+0	4.94790E-8
8.52000E-1	1.99996E+0	5.17238E-8
8.52500E-1	2.00004E+0	4.76321E-8
8.53000E-1	2.00000E+0	4.62640E-8
8.53500E-1	1.99999E+0	4.41124E-8
8.54000E-1	2.00001E+0	4.33289E-8
8.54500E-1	1.99998E+0	4.18614E-8
8.55000E-1	1.99992E+0	5.87009E-8
8.55500E-1	2.00008E+0	1.54067E-7
8.56000E-1	1.99995E+0	1.26252E-7
8.56500E-1	2.00005E+0	1.06055E-7
8.57000E-1	2.00003E+0	9.33440E-8
8.57500E-1	1.99996E+0	8.29032E-8
8.58000E-1	2.00003E+0	7.60069E-8
8.58500E-1	2.00001E+0	6.91604E-8
8.59000E-1	1.99998E+0	6.59081E-8
8.59500E-1	2.00003E+0	6.31471E-8
8.60000E-1	2.00002E+0	5.62571E-8
8.60500E-1	2.00001E+0	5.61887E-8
8.61000E-1	2.00002E+0	5.46154E-8
8.61500E-1	1.99998E+0	4.84902E-8
8.62000E-1	1.99998E+0	5.08657E-8
8.62500E-1	2.00007E+0	4.54121E-8
8.63000E-1	1.99998E+0	4.63760E-8
8.63500E-1	1.99998E+0	4.65936E-8
8.64000E-1	2.00005E+0	4.05306E-8
8.64500E-1	1.99998E+0	4.19733E-8
8.65000E-1	1.99990E+0	1.04966E-7
8.65500E-1	2.00005E+0	1.44385E-7
8.66000E-1	1.99999E+0	1.16943E-7
8.66500E-1	1.99999E+0	1.03157E-7
8.67000E-1	2.00006E+0	8.86366E-8
8.67500E-1	1.99998E+0	7.96074E-8
8.68000E-1	1.99999E+0	7.70267E-8
8.68500E-1	2.00003E+0	6.65300E-8
8.69000E-1	1.99996E+0	6.68347E-8
8.69500E-1	1.99999E+0	6.08277E-8
8.70000E-1	2.00002E+0	5.50631E-8
8.70500E-1	1.99997E+0	5.75878E-8
8.71000E-1	2.00002E+0	5.23270E-8
8.71500E-1	1.99996E+0	4.88882E-8
8.72000E-1	2.00002E+0	4.94354E-8
8.72500E-1	2.00001E+0	4.67118E-8
8.73000E-1	1.99998E+0	4.68672E-8
8.73500E-1	1.99997E+0	4.58785E-8
8.74000E-1	2.00003E+0	4.24024E-8
8.74500E-1	1.99993E+0	4.44607E-8
8.75000E-1	1.99996E+0	1.41979E-7
8.75500E-1	2.00004E+0	1.32309E-7
8.76000E-1	2.00003E+0	1.11384E-7
8.76500E-1	2.00001E+0	9.90276E-8
8.77000E-1	1.99999E+0	8.35686E-8
8.77500E-1	1.99999E+0	8.04593E-8
8.78000E-1	2.00003E+0	7.19276E-8
8.78500E-1	2.00000E+0	6.42167E-8
8.79000E-1	1.99997E+0	6.62502E-8
8.79500E-1	2.00003E+0	5.68603E-8
8.80000E-1	1.99998E+0	5.69038E-8
8.80500E-1	1.99997E+0	5.62944E-8
8.81000E-1	2.00003E+0	4.88012E-8
8.81500E-1	1.99999E+0	5.12948E-8
8.82000E-1	1.99994E+0	5.01568E-8
8.82500E-1	2.00004E+0	4.43736E-8
8.83000E-1	2.00004E+0	4.54805E-8
8.83500E-1	2.00001E+0	4.51571E-8
8.84000E-1	2.00003E+0	4.21288E-8
8.84500E-1	1.99983E+0	6.70586E-8
8.85000E-1	2.00007E+0	1.53495E-7
8.85500E-1	2.00003E+0	1.22341E-7
8.86000E-1	1.99998E+0	1.05619E-7
8.86500E-1	2.00007E+0	9.25853E-8
8.87000E-1	1.99998E+0	8.26607E-8
8.87500E-1	1.99999E+0	7.65293E-8
8.88000E-1	2.00004E+0	7.05409E-8
8.88500E-1	1.99998E+0	6.51370E-8
8.89000E-1	1.99993E+0	6.16734E-8
8.89500E-1	2.00006E+0	5.84025E-8
8.90000E-1	1.99995E+0	5.59773E-8
8.90500E-1	2.00001E+0	5.35147E-8
8.91000E-1	2.00004E+0	5.25758E-8
8.91500E-1	2.00001E+0	4.85089E-8
8.92000E-1	1.99997E+0	4.82664E-8
8.92500E-1	2.00008E+0	4.52007E-8
8.93000E-1	1.99992E+0	4.50825E-8
8.93500E-1	2.00003E+0	4.42617E-8
8.94000E-1	2.00006E+0	3.99772E-8
8.94500E-1	1.99988E+0	1.11278E-7
8.95000E-1	2.00004E+0	1.43620E-7
8.95500E-1	2.00004E+0	1.14493E-7
8.96000E-1	1.99995E+0	1.02093E-7
8.96500E-1	2.00005E+0	8.89164E-8
8.97000E-1	2.00002E+0	7.90726E-8
8.97500E-1	1.99995E+0	7.33641E-8
8.98000E-1	2.00005E+0	6.87562E-8
8.98500E-1	2.00000E+0	6.46707E-8
8.99000E-1	1.99997E+0	5.89062E-8
8.99500E-1	2.00000E+0	6.05851E-8
9.00000E-1	1.99998E+0	5.48455E-8
9.00500E-1	1.99994E+0	5.32349E-8
9.01000E-1	2.00001E+0	5.03620E-8
9.01500E-1	1.99996E+0	4.99080E-8
9.02000E-1	1.99996E+0	4.60961E-8
9.02500E-1	2.00008E+0	4.49457E-8
9.03000E-1	1.99998E+0	4.53997E-8
9.03500E-1	1.99993E+0	4.49146E-8
9.04000E-1	2.00004E+0	4.36709E-8
9.04500E-1	1.99991E+0	1.47575E-7
9.05000E-1	1.99996E+0	1.31432E-7
9.05500E-1	2.00007E+0	1.10781E-7
9.06000E-1	2.00002E+0	9.50167E-8
9.06500E-1	1.99995E+0	8.70385E-8
9.07000E-1	2.00003E+0	7.48752E-8
9.07500E-1	2.00002E+0	7.29163E-8
9.08000E-1	2.00001E+0	6.71891E-8
9.08500E-1	2.00002E+0	6.23201E-8
9.09000E-1	2.00000E+0	5.89186E-8
9.09500E-1	1.99996E+0	5.75194E-8
9.10000E-1	2.00004E+0	5.32038E-8
9.10500E-1	1.99995E+0	5.10771E-8
9.11000E-1	2.00001E+0	5.05921E-8
9.11500E-1	2.00004E+0	4.61832E-8
9.12000E-1	1.99998E+0	4.61210E-8
9.12500E-1	1.99999E+0	4.56608E-8
9.13000E-1	2.00000E+0	4.41808E-8
9.13500E-1	1.99996E+0	4.32729E-8
9.14000E-1	1.99996E+0	7.41849E-8
9.14500E-1	1.99999E+0	1.49789E-7
9.15000E-1	2.00002E+0	1.24548E-7
9.15500E-1	2.00005E+0	1.03169E-7
9.16000E-1	2.00002E+0	9.14225E-8
9.16500E-1	1.99999E+0	8.25052E-8
9.17000E-1	2.00008E+0	7.56400E-8
9.17500E-1	1.99999E+0	6.94402E-8
9.18000E-1	2.00000E+0	6.64180E-8
9.18500E-1	2.00002E+0	6.14682E-8
9.19000E-1	1.99998E+0	5.75132E-8
9.19500E-1	2.00000E+0	5.66862E-8
9.20000E-1	2.00003E+0	5.05237E-8
9.20500E-1	1.99999E+0	5.30857E-8
9.21000E-1	1.99999E+0	4.91991E-8
9.21500E-1	2.00001E+0	4.69481E-8
9.22000E-1	1.99998E+0	4.56981E-8
9.22500E-1	2.00002E+0	4.65190E-8
9.23000E-1	2.00004E+0	4.34035E-8
9.23500E-1	1.99999E+0	4.06674E-8
9.24000E-1	1.99991E+0	1.20699E-7
9.24500E-1	2.00003E+0	1.40225E-7
9.25000E-1	2.00000E+0	1.15295E-7
9.25500E-1	2.00000E+0	1.01702E-7
9.26000E-1	2.00004E+0	8.65783E-8
9.26500E-1	1.99999E+0	8.10625E-8
9.27000E-1	2.00000E+0	7.43341E-8
9.27500E-1	1.99998E+0	6.69591E-8
9.28000E-1	1.99998E+0	6.55723E-8
9.28500E-1	1.99999E+0	6.14806E-8
9.29000E-1	1.99996E+0	5.71774E-8
9.29500E-1	1.99996E+0	5.47398E-8
9.30000E-1	2.00006E+0	5.02811E-8
9.30500E-1	2.00000E+0	5.05485E-8
9.31000E-1	1.99998E+0	5.07227E-8
9.31500E-1	2.00006E+0	4.45726E-8
9.32000E-1	1.99995E+0	4.62765E-8
9.32500E-1	1.99995E+0	4.55365E-8
9.33000E-1	2.00001E+0	4.14136E-8
9.33500E-1	1.99995E+0	4.61210E-8
9.34000E-1	1.99994E+0	1.53694E-7
9.34500E-1	2.00003E+0	1.30387E-7
9.35000E-1	2.00000E+0	1.08865E-7
9.35500E-1	2.00001E+0	9.49794E-8
9.36000E-1	2.00003E+0	8.44205E-8
9.36500E-1	1.99998E+0	7.63925E-8
9.37000E-1	2.00000E+0	7.32832E-8
9.37500E-1	2.00001E+0	6.52241E-8
9.38000E-1	1.99999E+0	6.28300E-8
9.38500E-1	1.99998E+0	6.08898E-8
9.39000E-1	2.00001E+0	5.48579E-8
9.39500E-1	1.99999E+0	5.48579E-8
9.40000E-1	1.99998E+0	5.41242E-8
9.40500E-1	2.00001E+0	4.91059E-8
9.41000E-1	2.00002E+0	4.75948E-8
9.41500E-1	1.99995E+0	4.87949E-8
9.42000E-1	1.99998E+0	4.54432E-8
9.42500E-1	1.99998E+0	4.47903E-8
9.43000E-1	2.00005E+0	4.15629E-8
9.43500E-1	1.99985E+0	8.28597E-8
9.44000E-1	2.00006E+0	1.49441E-7
9.44500E-1	2.00003E+0	1.22962E-7
9.45000E-1	2.00000E+0	1.03673E-7
9.45500E-1	2.00001E+0	9.04835E-8
9.46000E-1	2.00000E+0	8.15227E-8
9.46500E-1	2.00000E+0	7.66225E-8
9.47000E-1	2.00002E+0	6.93967E-8
9.47500E-1	2.00003E+0	6.30974E-8
9.48000E-1	1.99996E+0	6.36322E-8
9.48500E-1	2.00004E+0	5.61638E-8
9.49000E-1	1.99999E+0	5.56850E-8
9.49500E-1	1.99996E+0	5.48331E-8
9.50000E-1	2.00005E+0	4.92427E-8
9.50500E-1	1.99998E+0	5.01257E-8
9.51000E-1	1.99996E+0	4.72528E-8
9.51500E-1	2.00006E+0	4.72217E-8
9.52000E-1	1.99999E+0	4.42928E-8
9.52500E-1	1.99999E+0	4.20230E-8
9.53000E-1	2.00003E+0	4.26698E-8
9.53500E-1	1.99989E+0	1.25978E-7
9.54000E-1	2.00006E+0	1.38111E-7
9.54500E-1	2.00004E+0	1.13001E-7
9.55000E-1	2.00001E+0	9.83250E-8
9.55500E-1	2.00004E+0	8.92398E-8
9.56000E-1	1.99999E+0	7.66972E-8
9.56500E-1	1.99996E+0	7.47010E-8
9.57000E-1	2.00003E+0	6.81654E-8
9.57500E-1	1.99999E+0	6.11572E-8
9.58000E-1	1.99999E+0	6.19781E-8
9.58500E-1	2.00004E+0	5.75505E-8
9.59000E-1	2.00000E+0	5.40060E-8
9.59500E-1	1.99996E+0	5.35023E-8
9.60000E-1	2.00004E+0	4.90250E-8
9.60500E-1	2.00000E+0	4.91370E-8
9.61000E-1	1.99999E+0	4.86706E-8
9.61500E-1	2.00004E+0	4.33040E-8
9.62000E-1	2.00000E+0	4.35279E-8
9.62500E-1	1.99994E+0	4.59096E-8
9.63000E-1	2.00002E+0	4.74331E-8
9.63500E-1	1.99996E+0	1.56505E-7
9.64000E-1	2.00001E+0	1.31351E-7
9.64500E-1	2.00003E+0	1.06291E-7
9.65000E-1	2.00001E+0	9.59619E-8
9.65500E-1	2.00000E+0	8.56828E-8
9.66000E-1	2.00001E+0	7.48689E-8
9.66500E-1	2.00000E+0	7.14737E-8
9.67000E-1	2.00001E+0	6.78110E-8
9.67500E-1	2.00006E+0	6.05043E-8
9.68000E-1	1.99997E+0	5.86450E-8
9.68500E-1	1.99998E+0	5.94720E-8
9.69000E-1	2.00004E+0	5.15684E-8
9.69500E-1	1.99996E+0	5.23021E-8
9.70000E-1	1.99999E+0	5.14689E-8
9.70500E-1	2.00002E+0	4.80052E-8
9.71000E-1	1.99996E+0	4.69294E-8
9.71500E-1	2.00003E+0	4.57728E-8
9.72000E-1	1.99999E+0	4.35092E-8
9.72500E-1	1.99995E+0	4.34471E-8
9.73000E-1	1.99995E+0	9.09685E-8
9.73500E-1	2.00007E+0	1.46630E-7
9.74000E-1	2.00002E+0	1.21936E-7
9.74500E-1	1.99999E+0	1.04232E-7
9.75000E-1	1.99999E+0	9.15406E-8
9.75500E-1	1.99996E+0	8.05402E-8
9.76000E-1	2.00005E+0	7.60256E-8
9.76500E-1	2.00004E+0	6.72016E-8
9.77000E-1	1.99996E+0	6.78483E-8
9.77500E-1	2.00007E+0	6.02120E-8
9.78000E-1	1.99995E+0	5.75319E-8
9.78500E-1	2.00001E+0	5.67546E-8
9.79000E-1	2.00004E+0	5.39314E-8
9.79500E-1	1.99998E+0	5.01319E-8
9.80000E-1	1.99998E+0	4.97028E-8
9.80500E-1	2.00003E+0	4.63262E-8
9.81000E-1	1.99998E+0	4.74828E-8
9.81500E-1	1.99999E+0	4.47592E-8
9.82000E-1	2.00006E+0	4.34719E-8
9.82500E-1	1.99995E+0	4.39570E-8
9.83000E-1	1.99988E+0	1.33758E-7
9.83500E-1	2.00003E+0	1.35468E-7
9.84000E-1	1.99995E+0	1.15513E-7
9.84500E-1	2.00004E+0	9.79208E-8
9.85000E-1	2.00001E+0	8.78593E-8
9.85500E-1	2.00001E+0	7.87057E-8
9.86000E-1	1.99998E+0	7.58266E-8
9.86500E-1	2.00000E+0	6.74938E-8
9.87000E-1	1.99993E+0	6.43349E-8
9.87500E-1	2.00004E+0	6.03551E-8
9.88000E-1	1.99999E+0	5.66799E-8
9.88500E-1	1.99996E+0	5.50507E-8
9.89000E-1	2.00007E+0	5.27872E-8
9.89500E-1	2.00000E+0	4.95598E-8
9.90000E-1	1.99998E+0	5.01754E-8
9.90500E-1	1.99999E+0	4.85462E-8
9.91000E-1	2.00001E+0	4.33911E-8
9.91500E-1	1.99996E+0	4.75264E-8
9.92000E-1	2.00003E+0	4.39197E-8
9.92500E-1	1.99992E+0	5.20285E-8
9.93000E-1	1.99998E+0	1.57904E-7
9.93500E-1	2.00008E+0	1.26886E-7
9.94000E-1	2.00001E+0	1.07839E-7
9.94500E-1	2.00003E+0	9.44820E-8
9.95000E-1	2.00004E+0	8.64228E-8
9.95500E-1	1.99998E+0	7.64049E-8
9.96000E-1	2.00000E+0	7.13866E-8
9.96500E-1	2.00004E+0	6.64491E-8
9.97000E-1	1.99995E+0	6.23450E-8
9.97500E-1	2.00003E+0	5.96213E-8
9.98000E-1	2.00004E+0	5.57472E-8
9.98500E-1	1.99995E+0	5.37386E-8
9.99000E-1	1.99999E+0	5.46092E-8
9.99500E-1	2.00003E+0	4.77689E-8
1.00000E+0	2.00001E+0	4.77005E-8
1.00050E+0	1.99999E+0	4.93484E-8
1.00100E+0	2.00005E+0	4.51136E-8
1.00150E+0	1.99995E+0	4.24272E-8
1.00200E+0	2.00002E+0	4.46659E-8
1.00250E+0	1.99991E+0	9.83312E-8
1.00300E+0	2.00001E+0	1.45330E-7
1.00350E+0	2.00001E+0	1.20736E-7
1.00400E+0	2.00006E+0	1.02187E-7
1.00450E+0	1.99998E+0	9.27470E-8
1.00500E+0	2.00001E+0	8.19704E-8
1.00550E+0	1.99998E+0	7.44399E-8
1.00600E+0	2.00000E+0	6.95895E-8
1.00650E+0	2.00004E+0	6.56594E-8
1.00700E+0	1.99996E+0	6.01747E-8
1.00750E+0	1.99995E+0	6.03364E-8
1.00800E+0	2.00003E+0	5.52000E-8
1.00850E+0	1.99996E+0	5.25260E-8
1.00900E+0	2.00000E+0	5.18358E-8
1.00950E+0	2.00007E+0	4.71719E-8
1.01000E+0	1.99998E+0	4.76756E-8
1.01050E+0	2.00003E+0	4.69481E-8
1.01100E+0	2.00003E+0	4.58412E-8
1.01150E+0	1.99994E+0	4.30615E-8
1.01200E+0	2.00005E+0	4.34160E-8
1.01250E+0	1.99995E+0	1.38801E-7
1.01300E+0	1.99998E+0	1.34989E-7
1.01350E+0	2.00000E+0	1.13069E-7
1.01400E+0	2.00004E+0	9.73051E-8
1.01450E+0	1.99999E+0	8.50610E-8
1.01500E+0	2.00003E+0	8.04469E-8
1.01550E+0	2.00003E+0	7.23816E-8
1.01600E+0	1.99999E+0	6.75249E-8
1.01650E+0	2.00000E+0	6.29730E-8
1.01700E+0	2.00004E+0	5.91176E-8
1.01750E+0	2.00000E+0	5.87134E-8
1.01800E+0	1.99993E+0	5.67173E-8
1.01850E+0	2.00007E+0	5.02003E-8
1.01900E+0	1.99996E+0	5.20285E-8
1.01950E+0	2.00004E+0	4.82912E-8
1.02000E+0	2.00001E+0	4.66496E-8
1.02050E+0	1.99998E+0	4.62018E-8
1.02100E+0	2.00003E+0	4.45166E-8
1.02150E+0	2.00000E+0	4.44234E-8
1.02200E+0	1.99988E+0	6.12256E-8
1.02250E+0	2.00003E+0	1.57295E-7
1.02300E+0	2.00004E+0	1.24586E-7
1.02350E+0	2.00003E+0	1.08088E-7
1.02400E+0	2.00001E+0	9.59371E-8
1.02450E+0	1.99999E+0	8.34131E-8
1.02500E+0	1.99996E+0	7.74558E-8
1.02550E+0	2.00006E+0	6.97760E-8
1.02600E+0	1.99997E+0	6.63745E-8
1.02650E+0	2.00002E+0	6.08836E-8
1.02700E+0	2.00004E+0	5.91735E-8
1.02750E+0	2.00001E+0	5.71836E-8
1.02800E+0	1.99997E+0	5.53927E-8
1.02850E+0	2.00001E+0	5.12885E-8
1.02900E+0	1.99993E+0	4.88136E-8
1.02950E+0	2.00002E+0	4.89815E-8
1.03000E+0	2.00001E+0	4.52815E-8
1.03050E+0	2.00000E+0	4.40316E-8
1.03100E+0	2.00001E+0	4.63324E-8
1.03150E+0	1.99997E+0	4.07483E-8
1.03200E+0	1.99986E+0	1.08803E-7
1.03250E+0	2.00006E+0	1.41674E-7
1.03300E+0	2.00000E+0	1.17111E-7
1.03350E+0	2.00000E+0	1.01173E-7
1.03400E+0	2.00005E+0	9.15282E-8
1.03450E+0	1.99999E+0	8.00116E-8
1.03500E+0	1.99999E+0	7.69646E-8
1.03550E+0	2.00002E+0	6.96206E-8
1.03600E+0	1.99998E+0	6.43100E-8
1.03650E+0	1.99994E+0	6.15987E-8
1.03700E+0	2.00005E+0	5.79112E-8
1.03750E+0	1.99998E+0	5.54176E-8
1.03800E+0	1.99999E+0	5.42983E-8
1.03850E+0	2.00004E+0	4.87265E-8
1.03900E+0	1.99998E+0	5.07973E-8
1.03950E+0	2.00002E+0	4.86333E-8
1.04000E+0	2.00001E+0	4.55365E-8
1.04050E+0	1.99996E+0	4.35155E-8
1.04100E+0	2.00007E+0	4.26076E-8
1.04150E+0	1.99999E+0	4.67926E-8
1.04200E+0	1.99989E+0	1.44522E-7
1.04250E+0	2.00002E+0	1.33298E-7
1.04300E+0	2.00002E+0	1.11545E-7
1.04350E+0	2.00003E+0	9.70004E-8
1.04400E+0	2.00003E+0	8.76168E-8
1.04450E+0	2.00003E+0	7.67283E-8
1.04500E+0	1.99993E+0	7.31464E-8
1.04550E+0	2.00005E+0	6.85199E-8
1.04600E+0	2.00000E+0	6.25688E-8
1.04650E+0	1.99998E+0	5.98762E-8
1.04700E+0	2.00005E+0	5.64747E-8
1.04750E+0	2.00002E+0	5.48020E-8
1.04800E+0	1.99992E+0	5.38132E-8
1.04850E+0	2.00005E+0	5.07475E-8
1.04900E+0	1.99999E+0	4.60464E-8
1.04950E+0	1.99996E+0	4.79057E-8
1.05000E+0	2.00006E+0	4.59966E-8
1.05050E+0	1.99996E+0	4.37455E-8
1.05100E+0	1.99999E+0	4.30180E-8
1.05150E+0	1.99998E+0	6.88246E-8
1.05200E+0	1.99997E+0	1.53315E-7
1.05250E+0	2.00000E+0	1.25630E-7
1.05300E+0	2.00005E+0	1.03698E-7
1.05350E+0	1.99998E+0	9.19946E-8
1.05400E+0	2.00004E+0	8.35188E-8
1.05450E+0	2.00006E+0	7.69086E-8
1.05500E+0	1.99996E+0	6.86691E-8
1.05550E+0	2.00001E+0	6.70337E-8
1.05600E+0	2.00001E+0	6.04608E-8
1.05650E+0	1.99998E+0	5.87569E-8
1.05700E+0	2.00001E+0	5.73888E-8
1.05750E+0	2.00003E+0	5.09154E-8
1.05800E+0	1.99998E+0	5.11393E-8
1.05850E+0	2.00003E+0	5.05921E-8
1.05900E+0	2.00000E+0	4.71284E-8
1.05950E+0	1.99999E+0	4.75450E-8
1.06000E+0	2.00005E+0	4.48960E-8
1.06050E+0	1.99999E+0	4.30926E-8
1.06100E+0	1.99995E+0	4.30802E-8
1.06150E+0	1.99994E+0	1.13641E-7
1.06200E+0	2.00001E+0	1.39939E-7
1.06250E+0	1.99997E+0	1.19306E-7
1.06300E+0	2.00008E+0	9.94256E-8
1.06350E+0	1.99999E+0	8.80023E-8
1.06400E+0	1.99994E+0	8.09568E-8
1.06450E+0	2.00006E+0	7.35755E-8
1.06500E+0	1.99995E+0	6.73819E-8
1.06550E+0	2.00001E+0	6.37441E-8
1.06600E+0	2.00003E+0	5.98824E-8
1.06650E+0	2.00001E+0	5.90305E-8
1.06700E+0	1.99996E+0	5.56166E-8
1.06750E+0	2.00003E+0	5.39438E-8
1.06800E+0	1.99996E+0	4.93795E-8
1.06850E+0	2.00002E+0	5.05485E-8
1.06900E+0	2.00007E+0	4.50328E-8
1.06950E+0	1.99995E+0	4.59034E-8
1.07000E+0	1.99999E+0	4.61272E-8
1.07050E+0	2.00001E+0	4.01637E-8
1.07100E+0	2.00002E+0	4.65625E-8
1.07150E+0	1.99988E+0	1.52034E-7
1.07200E+0	2.00004E+0	1.29274E-7
1.07250E+0	2.00002E+0	1.12217E-7
1.07300E+0	2.00000E+0	9.77653E-8
1.07350E+0	2.00001E+0	8.51356E-8
1.07400E+0	1.99996E+0	7.80403E-8
1.07450E+0	1.99998E+0	7.12063E-8
1.07500E+0	2.00006E+0	6.59144E-8
1.07550E+0	1.99998E+0	6.27305E-8
1.07600E+0	2.00000E+0	6.15863E-8
1.07650E+0	2.00001E+0	5.65494E-8
1.07700E+0	1.99997E+0	5.51751E-8
1.07750E+0	2.00004E+0	5.26255E-8
1.07800E+0	1.99998E+0	4.97837E-8
1.07850E+0	1.99994E+0	4.80425E-8
1.07900E+0	2.00005E+0	4.46970E-8
1.07950E+0	2.00004E+0	4.73025E-8
1.08000E+0	1.99996E+0	4.46224E-8
1.08050E+0	1.99999E+0	4.29558E-8
1.08100E+0	1.99990E+0	7.65417E-8
1.08150E+0	2.00000E+0	1.53016E-7
1.08200E+0	2.00008E+0	1.23373E-7
1.08250E+0	1.99996E+0	1.03505E-7
1.08300E+0	2.00003E+0	9.20381E-8
1.08350E+0	2.00006E+0	8.08884E-8
1.08400E+0	1.99999E+0	7.58639E-8
1.08450E+0	1.99996E+0	7.25868E-8
1.08500E+0	2.00003E+0	6.32529E-8
1.08550E+0	1.99998E+0	6.29171E-8
1.08600E+0	1.99999E+0	5.97767E-8
1.08650E+0	2.00004E+0	5.47833E-8
1.08700E+0	1.99996E+0	5.50445E-8
1.08750E+0	1.99997E+0	5.30111E-8
1.08800E+0	2.00001E+0	4.74207E-8
1.08850E+0	2.00001E+0	4.89939E-8
1.08900E+0	1.99996E+0	4.86830E-8
1.08950E+0	2.00000E+0	4.37766E-8
1.09000E+0	1.99995E+0	4.54681E-8
1.09050E+0	2.00004E+0	4.20479E-8
1.09100E+0	1.99989E+0	1.19847E-7
1.09150E+0	1.99999E+0	1.42084E-7
1.09200E+0	2.00005E+0	1.17024E-7
1.09250E+0	2.00003E+0	9.76596E-8
1.09300E+0	1.99997E+0	9.07509E-8
1.09350E+0	2.00002E+0	7.93338E-8
1.09400E+0	2.00001E+0	7.44958E-8
1.09450E+0	2.00001E+0	6.85634E-8
1.09500E+0	2.00003E+0	6.35140E-8
1.09550E+0	2.00000E+0	6.00877E-8
1.09600E+0	2.00001E+0	5.95404E-8
1.09650E+0	2.00006E+0	5.45657E-8
1.09700E+0	1.99999E+0	5.30048E-8
1.09750E+0	2.00000E+0	4.96096E-8
1.09800E+0	2.00004E+0	4.99329E-8
1.09850E+0	2.00002E+0	4.67366E-8
1.09900E+0	1.99999E+0	4.75202E-8
1.09950E+0	2.00001E+0	4.37766E-8
1.10000E+0	1.99999E+0	4.48089E-8
1.10050E+0	1.99995E+0	5.04242E-8
1.10100E+0	1.99991E+0	1.51717E-7
1.10150E+0	1.99997E+0	1.32122E-7
1.10200E+0	2.00003E+0	1.10370E-7
1.10250E+0	1.99995E+0	9.35927E-8
1.10300E+0	2.00000E+0	8.50796E-8
1.10350E+0	2.00007E+0	7.58204E-8
1.10400E+0	2.00001E+0	7.12809E-8
1.10450E+0	1.99998E+0	6.87375E-8
1.10500E+0	2.00003E+0	6.16361E-8
1.10550E+0	1.99998E+0	6.08525E-8
1.10600E+0	1.99996E+0	5.69225E-8
1.10650E+0	2.00004E+0	5.28680E-8
1.10700E+0	1.99997E+0	5.29489E-8
1.10750E+0	2.00003E+0	5.07662E-8
1.10800E+0	1.99999E+0	4.85400E-8
1.10850E+0	1.99994E+0	4.80301E-8
1.10900E+0	2.00004E+0	4.25019E-8
1.10950E+0	2.00003E+0	4.40938E-8
1.11000E+0	2.00000E+0	4.46659E-8
1.11050E+0	1.99992E+0	8.70011E-8
1.11100E+0	1.99998E+0	1.47208E-7
1.11150E+0	2.00004E+0	1.22546E-7
1.11200E+0	2.00004E+0	1.04929E-7
1.11250E+0	1.99999E+0	8.93890E-8
1.11300E+0	1.99999E+0	8.46692E-8
1.11350E+0	2.00005E+0	7.50244E-8
1.11400E+0	1.99999E+0	6.78794E-8
1.11450E+0	1.99995E+0	6.73695E-8
1.11500E+0	2.00006E+0	6.04856E-8
1.11550E+0	1.99998E+0	5.81413E-8
1.11600E+0	1.99997E+0	5.83714E-8
1.11650E+0	2.00004E+0	5.35023E-8
1.11700E+0	1.99998E+0	4.90001E-8
1.11750E+0	2.00000E+0	5.10958E-8
1.11800E+0	2.00001E+0	4.60899E-8
1.11850E+0	2.00001E+0	4.68112E-8
1.11900E+0	2.00002E+0	4.63013E-8
1.11950E+0	2.00000E+0	4.35714E-8
1.12000E+0	1.99999E+0	4.21723E-8
1.12050E+0	1.99991E+0	1.29430E-7
1.12100E+0	2.00002E+0	1.35810E-7
1.12150E+0	1.99999E+0	1.14885E-7
1.12200E+0	2.00005E+0	1.00750E-7
1.12250E+0	2.00001E+0	8.72685E-8
1.12300E+0	1.99998E+0	7.97069E-8
1.12350E+0	2.00001E+0	7.17908E-8
1.12400E+0	2.00003E+0	6.73633E-8
1.12450E+0	2.00001E+0	6.51930E-8
1.12500E+0	2.00003E+0	5.94347E-8
1.12550E+0	1.99993E+0	5.77682E-8
1.12600E+0	2.00001E+0	5.52186E-8
1.12650E+0	2.00003E+0	5.07600E-8
1.12700E+0	2.00001E+0	5.09279E-8
1.12750E+0	2.00003E+0	4.87328E-8
1.12800E+0	1.99998E+0	4.84156E-8
1.12850E+0	1.99997E+0	4.48773E-8
1.12900E+0	2.00005E+0	4.58474E-8
1.12950E+0	1.99999E+0	4.20728E-8
1.13000E+0	1.99995E+0	5.03993E-8
1.13050E+0	2.00001E+0	1.57711E-7
1.13100E+0	2.00001E+0	1.28043E-7
1.13150E+0	1.99998E+0	1.09842E-7
1.13200E+0	2.00004E+0	9.22931E-8
1.13250E+0	1.99999E+0	8.42526E-8
1.13300E+0	2.00000E+0	7.86062E-8
1.13350E+0	2.00005E+0	6.99812E-8
1.13400E+0	1.99998E+0	6.73197E-8
1.13450E+0	2.00002E+0	6.32155E-8
1.13500E+0	2.00000E+0	5.85330E-8
1.13550E+0	1.99998E+0	5.59399E-8
1.13600E+0	2.00006E+0	5.39811E-8
1.13650E+0	2.00002E+0	5.14129E-8
1.13700E+0	1.99993E+0	5.32100E-8
1.13750E+0	2.00006E+0	4.67677E-8
1.13800E+0	1.99998E+0	4.62081E-8
1.13850E+0	1.99999E+0	4.76196E-8
1.13900E+0	2.00003E+0	4.30864E-8
1.13950E+0	1.99994E+0	4.24024E-8
1.14000E+0	1.99991E+0	9.35865E-8
1.14050E+0	2.00008E+0	1.46145E-7
1.14100E+0	2.00004E+0	1.21930E-7
1.14150E+0	1.99997E+0	1.04344E-7
1.14200E+0	2.00008E+0	9.02099E-8
1.14250E+0	1.99997E+0	8.16906E-8
1.14300E+0	2.00001E+0	7.32708E-8
1.14350E+0	2.00004E+0	6.95397E-8
1.14400E+0	1.99996E+0	6.58086E-8
1.14450E+0	2.00004E+0	6.13749E-8
1.14500E+0	2.00002E+0	5.79672E-8
1.14550E+0	1.99996E+0	5.78241E-8
1.14600E+0	2.00004E+0	5.24203E-8
1.14650E+0	2.00000E+0	5.21778E-8
1.14700E+0	1.99997E+0	4.89007E-8
1.14750E+0	2.00004E+0	4.73585E-8
1.14800E+0	1.99996E+0	4.71160E-8
1.14850E+0	1.99999E+0	4.62827E-8
1.14900E+0	2.00003E+0	4.19795E-8
1.14950E+0	1.99994E+0	4.31175E-8
1.15000E+0	1.99995E+0	1.33565E-7
1.15050E+0	2.00004E+0	1.35418E-7
1.15100E+0	1.99999E+0	1.15332E-7
1.15150E+0	2.00001E+0	9.72616E-8
1.15200E+0	2.00001E+0	8.83319E-8
1.15250E+0	1.99996E+0	7.97256E-8
1.15300E+0	2.00006E+0	7.14861E-8
1.15350E+0	1.99997E+0	6.78172E-8
1.15400E+0	1.99999E+0	6.46955E-8
1.15450E+0	2.00006E+0	6.04856E-8
1.15500E+0	1.99996E+0	5.56974E-8
1.15550E+0	2.00004E+0	5.57658E-8
1.15600E+0	2.00000E+0	5.21778E-8
1.15650E+0	1.99999E+0	5.06791E-8
1.15700E+0	1.99995E+0	5.09092E-8
1.15750E+0	1.99998E+0	4.59158E-8
1.15800E+0	1.99997E+0	4.62018E-8
1.15850E+0	2.00003E+0	4.46908E-8
1.15900E+0	2.00002E+0	4.26200E-8
1.15950E+0	1.99994E+0	5.40309E-8
1.16000E+0	2.00001E+0	1.60547E-7
1.16050E+0	1.99999E+0	1.27011E-7
1.16100E+0	2.00003E+0	1.08815E-7
1.16150E+0	2.00001E+0	9.58749E-8
1.16200E+0	1.99998E+0	8.22502E-8
1.16250E+0	1.99997E+0	7.90664E-8
1.16300E+0	2.00002E+0	6.86754E-8
1.16350E+0	1.99999E+0	6.67538E-8
1.16400E+0	1.99996E+0	6.48261E-8
1.16450E+0	2.00003E+0	5.66862E-8
1.16500E+0	1.99998E+0	5.73826E-8
1.16550E+0	2.00000E+0	5.36205E-8
1.16600E+0	2.00001E+0	5.03682E-8
1.16650E+0	1.99995E+0	5.15932E-8
1.16700E+0	2.00006E+0	4.79990E-8
1.16750E+0	1.99998E+0	4.61397E-8
1.16800E+0	2.00003E+0	4.55924E-8
1.16850E+0	2.00001E+0	4.44855E-8
1.16900E+0	1.99998E+0	4.30118E-8
1.16950E+0	1.99989E+0	1.03468E-7
1.17000E+0	2.00005E+0	1.44161E-7
1.17050E+0	2.00001E+0	1.21128E-7
1.17100E+0	2.00001E+0	1.02355E-7
1.17150E+0	2.00002E+0	9.05084E-8
1.17200E+0	2.00000E+0	8.11371E-8
1.17250E+0	1.99997E+0	7.62308E-8
1.17300E+0	1.99998E+0	6.82401E-8
1.17350E+0	1.99997E+0	6.66792E-8
1.17400E+0	2.00005E+0	6.10266E-8
1.17450E+0	1.99998E+0	5.63939E-8
1.17500E+0	2.00001E+0	5.47460E-8
1.17550E+0	2.00002E+0	5.38070E-8
1.17600E+0	2.00001E+0	5.24265E-8
1.17650E+0	1.99999E+0	5.06978E-8
1.17700E+0	2.00002E+0	4.67864E-8
1.17750E+0	1.99997E+0	4.50701E-8
1.17800E+0	2.00004E+0	4.62765E-8
1.17850E+0	1.99997E+0	4.31797E-8
1.17900E+0	2.00000E+0	4.32356E-8
1.17950E+0	1.99997E+0	1.41780E-7
1.18000E+0	1.99998E+0	1.35300E-7
1.18050E+0	2.00002E+0	1.13280E-7
1.18100E+0	2.00003E+0	9.83809E-8
1.18150E+0	2.00003E+0	8.48620E-8
1.18200E+0	1.99998E+0	8.07143E-8
1.18250E+0	2.00005E+0	7.19089E-8
1.18300E+0	2.00002E+0	6.85075E-8
1.18350E+0	2.00003E+0	6.19283E-8
1.18400E+0	1.99999E+0	6.18599E-8
1.18450E+0	1.99998E+0	5.59586E-8
1.18500E+0	2.00006E+0	5.62571E-8
1.18550E+0	1.99996E+0	5.19912E-8
1.18600E+0	2.00000E+0	5.09403E-8
1.18650E+0	2.00003E+0	4.76196E-8
1.18700E+0	1.99998E+0	4.89131E-8
1.18750E+0	2.00001E+0	4.62018E-8
1.18800E+0	2.00002E+0	4.69170E-8
1.18850E+0	1.99993E+0	4.28750E-8
1.18900E+0	1.99995E+0	6.47702E-8
1.18950E+0	1.99999E+0	1.53153E-7
1.19000E+0	1.99998E+0	1.26911E-7
1.19050E+0	2.00011E+0	1.06253E-7
1.19100E+0	1.99999E+0	9.27408E-8
1.19150E+0	1.99995E+0	8.63855E-8
1.19200E+0	2.00004E+0	7.35133E-8
1.19250E+0	1.99999E+0	7.13182E-8
1.19300E+0	1.99998E+0	6.70150E-8
1.19350E+0	2.00008E+0	6.13687E-8
1.19400E+0	1.99998E+0	5.95467E-8
1.19450E+0	1.99995E+0	5.74697E-8
1.19500E+0	2.00003E+0	5.38879E-8
1.19550E+0	2.00002E+0	5.08906E-8
1.19600E+0	1.99999E+0	4.85151E-8
1.19650E+0	2.00004E+0	4.79865E-8
1.19700E+0	1.99998E+0	4.75948E-8
1.19750E+0	1.99999E+0	4.46286E-8
1.19800E+0	2.00006E+0	4.43674E-8
1.19850E+0	1.99997E+0	4.42430E-8
1.19900E+0	1.99989E+0	1.10140E-7
1.19950E+0	2.00008E+0	1.42451E-7
1.20000E+0	1.99998E+0	1.17727E-7
1.20050E+0	1.99998E+0	1.03150E-7
1.20100E+0	2.00004E+0	8.95383E-8
1.20150E+0	1.99999E+0	8.14232E-8
1.20200E+0	2.00003E+0	7.33765E-8
1.20250E+0	2.00001E+0	7.09575E-8
1.20300E+0	1.99998E+0	6.36757E-8
1.20350E+0	2.00001E+0	6.25564E-8
1.20400E+0	2.00003E+0	5.72956E-8
1.20450E+0	1.99998E+0	5.61078E-8
1.20500E+0	1.99995E+0	5.35334E-8
1.20550E+0	2.00009E+0	4.90250E-8
1.20600E+0	1.99996E+0	5.07786E-8
1.20650E+0	2.00004E+0	4.62516E-8
1.20700E+0	1.99999E+0	4.77005E-8
1.20750E+0	1.99996E+0	4.58909E-8
1.20800E+0	1.99999E+0	4.40192E-8
1.20850E+0	1.99997E+0	4.37829E-8
1.20900E+0	1.99994E+0	1.47482E-7
1.20950E+0	2.00007E+0	1.33223E-7
1.21000E+0	2.00003E+0	1.11073E-7
1.21050E+0	2.00000E+0	9.76969E-8
1.21100E+0	2.00004E+0	8.51170E-8
1.21150E+0	1.99995E+0	7.98250E-8
1.21200E+0	1.99999E+0	7.16602E-8
1.21250E+0	2.00002E+0	6.81779E-8
1.21300E+0	1.99998E+0	6.32155E-8
1.21350E+0	1.99999E+0	6.06722E-8
1.21400E+0	2.00001E+0	5.70033E-8
1.21450E+0	1.99996E+0	5.46652E-8
1.21500E+0	2.00006E+0	5.13694E-8
1.21550E+0	1.99998E+0	5.11517E-8
1.21600E+0	1.99998E+0	4.86395E-8
1.21650E+0	2.00004E+0	4.72465E-8
1.21700E+0	1.99996E+0	4.49457E-8
1.21750E+0	2.00001E+0	4.60526E-8
1.21800E+0	2.00003E+0	4.04435E-8
1.21850E+0	1.99992E+0	7.09824E-8
1.21900E+0	1.99998E+0	1.54316E-7
1.21950E+0	2.00009E+0	1.23050E-7
1.22000E+0	1.99999E+0	1.07186E-7
1.22050E+0	2.00003E+0	9.15593E-8
1.22100E+0	1.99999E+0	8.33944E-8
1.22150E+0	1.99999E+0	7.74993E-8
1.22200E+0	2.00001E+0	7.07896E-8
1.22250E+0	2.00003E+0	6.48759E-8
1.22300E+0	1.99996E+0	6.08339E-8
1.22350E+0	2.00002E+0	6.15241E-8
1.22400E+0	1.99998E+0	5.46279E-8
1.22450E+0	2.00004E+0	5.17798E-8
1.22500E+0	2.00001E+0	5.46216E-8
1.22550E+0	1.99999E+0	4.89566E-8
1.22600E+0	1.99994E+0	4.75699E-8
1.22650E+0	2.00006E+0	4.77502E-8
1.22700E+0	2.00000E+0	4.27506E-8
1.22750E+0	2.00000E+0	4.60775E-8
1.22800E+0	2.00004E+0	4.21101E-8
1.22850E+0	1.99988E+0	1.13386E-7
1.22900E+0	1.99999E+0	1.44553E-7
1.22950E+0	2.00003E+0	1.14319E-7
1.23000E+0	1.99996E+0	1.00918E-7
1.23050E+0	2.00004E+0	8.83257E-8
1.23100E+0	1.99999E+0	8.24181E-8
1.23150E+0	1.99996E+0	7.22945E-8
1.23200E+0	2.00001E+0	6.85075E-8
1.23250E+0	2.00003E+0	6.30476E-8
1.23300E+0	1.99996E+0	6.10204E-8
1.23350E+0	2.00000E+0	6.02182E-8
1.23400E+0	2.00002E+0	5.45346E-8
1.23450E+0	1.99998E+0	5.17052E-8
1.23500E+0	2.00003E+0	5.22586E-8
1.23550E+0	2.00002E+0	4.84280E-8
1.23600E+0	1.99996E+0	4.87949E-8
1.23650E+0	2.00004E+0	4.66682E-8
1.23700E+0	2.00000E+0	4.31859E-8
1.23750E+0	1.99997E+0	4.48711E-8
1.23800E+0	2.00001E+0	4.62827E-8
1.23850E+0	1.99996E+0	1.51536E-7
1.23900E+0	1.99998E+0	1.32035E-7
1.23950E+0	2.00005E+0	1.11029E-7
1.24000E+0	2.00001E+0	9.36300E-8
1.24050E+0	1.99994E+0	8.73494E-8
1.24100E+0	2.00007E+0	7.84135E-8
1.24150E+0	1.99998E+0	7.20458E-8
1.24200E+0	1.99993E+0	6.85945E-8
1.24250E+0	2.00004E+0	6.10080E-8
1.24300E+0	2.00000E+0	5.93041E-8
1.24350E+0	1.99997E+0	5.94907E-8
1.24400E+0	2.00003E+0	5.30484E-8
1.24450E+0	1.99997E+0	5.22337E-8
1.24500E+0	2.00003E+0	5.00075E-8
1.24550E+0	2.00000E+0	4.89504E-8
1.24600E+0	2.00001E+0	4.65252E-8
1.24650E+0	1.99996E+0	4.84529E-8
1.24700E+0	1.99997E+0	4.17681E-8
1.24750E+0	1.99998E+0	4.33103E-8
1.24800E+0	1.99995E+0	7.98250E-8
1.24850E+0	2.00001E+0	1.49068E-7
1.24900E+0	2.00003E+0	1.23659E-7
1.24950E+0	2.00003E+0	1.03828E-7
1.25000E+0	1.99998E+0	9.21625E-8
1.25050E+0	2.00004E+0	8.36307E-8
1.25100E+0	1.99998E+0	7.42844E-8
1.25150E+0	1.99998E+0	6.99128E-8
1.25200E+0	2.00006E+0	6.59206E-8
1.25250E+0	1.99998E+0	6.08836E-8
1.25300E+0	1.99999E+0	5.97456E-8
1.25350E+0	2.00004E+0	5.32971E-8
1.25400E+0	1.99999E+0	5.44226E-8
1.25450E+0	2.00002E+0	5.27934E-8
1.25500E+0	2.00005E+0	4.63138E-8
1.25550E+0	1.99995E+0	4.97277E-8
1.25600E+0	2.00002E+0	4.54245E-8
1.25650E+0	2.00000E+0	4.56608E-8
1.25700E+0	1.99997E+0	4.42679E-8
1.25750E+0	2.00004E+0	4.13266E-8
1.25800E+0	1.99990E+0	1.24200E-7
1.25850E+0	2.00000E+0	1.40890E-7
1.25900E+0	1.99999E+0	1.16825E-7
1.25950E+0	1.99996E+0	9.89033E-8
1.26000E+0	2.00003E+0	8.90470E-8
1.26050E+0	2.00003E+0	7.81025E-8
1.26100E+0	1.99996E+0	7.42347E-8
1.26150E+0	2.00006E+0	6.82214E-8
1.26200E+0	2.00000E+0	6.48510E-8
1.26250E+0	2.00000E+0	6.03675E-8
1.26300E+0	2.00001E+0	5.87569E-8
1.26350E+0	2.00001E+0	5.41428E-8
1.26400E+0	1.99998E+0	5.43107E-8
1.26450E+0	2.00003E+0	5.22337E-8
1.26500E+0	1.99996E+0	4.80176E-8
1.26550E+0	2.00002E+0	4.85213E-8
1.26600E+0	2.00003E+0	4.30056E-8
1.26650E+0	2.00000E+0	4.55924E-8
1.26700E+0	1.99998E+0	4.51634E-8
1.26750E+0	1.99999E+0	4.78684E-8
1.26800E+0	1.99996E+0	1.54397E-7
1.26850E+0	2.00002E+0	1.31252E-7
1.26900E+0	2.00001E+0	1.08163E-7
1.26950E+0	2.00000E+0	9.65278E-8
1.27000E+0	2.00004E+0	8.45511E-8
1.27050E+0	2.00003E+0	7.68962E-8
1.27100E+0	1.99994E+0	7.42160E-8
1.27150E+0	2.00006E+0	6.59144E-8
1.27200E+0	2.00000E+0	6.22703E-8
1.27250E+0	1.99998E+0	6.11510E-8
1.27300E+0	2.00004E+0	5.56104E-8
1.27350E+0	2.00000E+0	5.23581E-8
1.27400E+0	1.99998E+0	5.61078E-8
1.27450E+0	2.00000E+0	4.75450E-8
1.27500E+0	2.00004E+0	4.89193E-8
1.27550E+0	2.00000E+0	4.82664E-8
1.27600E+0	2.00003E+0	4.45104E-8
1.27650E+0	1.99995E+0	4.53561E-8
1.27700E+0	2.00008E+0	4.14696E-8
1.27750E+0	1.99988E+0	8.86242E-8
1.27800E+0	2.00001E+0	1.48850E-7
1.27850E+0	2.00005E+0	1.20556E-7
1.27900E+0	1.99998E+0	1.03872E-7
1.27950E+0	2.00004E+0	9.18391E-8
1.28000E+0	2.00001E+0	8.36494E-8
1.28050E+0	1.99995E+0	7.48503E-8
1.28100E+0	2.00007E+0	6.87873E-8
1.28150E+0	2.00003E+0	6.52117E-8
1.28200E+0	2.00000E+0	6.12878E-8
1.28250E+0	1.99998E+0	6.21398E-8
1.28300E+0	2.00001E+0	5.26379E-8
1.28350E+0	1.99996E+0	5.49512E-8
1.28400E+0	2.00006E+0	5.15995E-8
1.28450E+0	2.00000E+0	4.88447E-8
1.28500E+0	1.99995E+0	4.90188E-8
1.28550E+0	2.00005E+0	4.42555E-8
1.28600E+0	1.99998E+0	4.51074E-8
1.28650E+0	2.00001E+0	4.60837E-8
1.28700E+0	2.00003E+0	4.07047E-8
1.28750E+0	1.99988E+0	1.30935E-7
1.28800E+0	2.00000E+0	1.39130E-7
1.28850E+0	2.00002E+0	1.12385E-7
1.28900E+0	2.00000E+0	1.01018E-7
1.28950E+0	2.00004E+0	8.81080E-8
1.29000E+0	1.99999E+0	7.93711E-8
1.29050E+0	2.00003E+0	7.37620E-8
1.29100E+0	1.99997E+0	6.90174E-8
1.29150E+0	2.00003E+0	6.33150E-8
1.29200E+0	1.99999E+0	6.30539E-8
1.29250E+0	2.00006E+0	5.64685E-8
1.29300E+0	1.99995E+0	5.51440E-8
1.29350E+0	2.00002E+0	5.37137E-8
1.29400E+0	2.00002E+0	4.98832E-8
1.29450E+0	1.99999E+0	4.87514E-8
1.29500E+0	1.99999E+0	4.75948E-8
1.29550E+0	2.00008E+0	4.54681E-8
1.29600E+0	1.99997E+0	4.46161E-8
1.29650E+0	2.00002E+0	4.40503E-8
1.29700E+0	1.99998E+0	5.10647E-8
1.29750E+0	1.99996E+0	1.56430E-7
1.29800E+0	2.00006E+0	1.28130E-7
1.29850E+0	2.00006E+0	1.09158E-7
1.29900E+0	1.99999E+0	9.22371E-8
1.29950E+0	2.00001E+0	8.65659E-8
1.30000E+0	1.99998E+0	7.60380E-8
1.30050E+0	1.99998E+0	7.13182E-8
1.30100E+0	2.00005E+0	6.64802E-8
1.30150E+0	1.99995E+0	6.32777E-8
1.30200E+0	1.99996E+0	5.89683E-8
1.30250E+0	2.00007E+0	5.43542E-8
1.30300E+0	2.00001E+0	5.37137E-8
1.30350E+0	1.99995E+0	5.42858E-8
1.30400E+0	2.00004E+0	5.00884E-8
1.30450E+0	2.00000E+0	4.62640E-8
1.30500E+0	2.00001E+0	4.79306E-8
1.30550E+0	2.00004E+0	4.49581E-8
1.30600E+0	1.99995E+0	4.41622E-8
1.30650E+0	2.00001E+0	4.34222E-8
1.30700E+0	1.99993E+0	9.33937E-8
1.30750E+0	2.00001E+0	1.49223E-7
1.30800E+0	2.00000E+0	1.19449E-7
1.30850E+0	2.00001E+0	1.02616E-7
1.30900E+0	1.99996E+0	9.10556E-8
1.30950E+0	2.00006E+0	8.07516E-8
1.31000E+0	1.99999E+0	7.56711E-8
1.31050E+0	1.99996E+0	6.80535E-8
1.31100E+0	2.00007E+0	6.50251E-8
1.31150E+0	1.99999E+0	6.03861E-8
1.31200E+0	2.00000E+0	5.89932E-8
1.31250E+0	2.00005E+0	5.59399E-8
1.31300E+0	1.99999E+0	5.10833E-8
1.31350E+0	2.00001E+0	5.29116E-8
1.31400E+0	2.00002E+0	4.68050E-8
1.31450E+0	1.99999E+0	4.86395E-8
1.31500E+0	2.00001E+0	4.57852E-8
1.31550E+0	2.00005E+0	4.38202E-8
1.31600E+0	1.99994E+0	4.34284E-8
1.31650E+0	2.00001E+0	4.54681E-8
1.31700E+0	1.99997E+0	1.33596E-7
1.31750E+0	1.99999E+0	1.36687E-7
1.31800E+0	2.00000E+0	1.14014E-7
1.31850E+0	2.00005E+0	9.66833E-8
1.31900E+0	1.99995E+0	8.83195E-8
1.31950E+0	2.00000E+0	7.99059E-8
1.32000E+0	2.00007E+0	7.02175E-8
1.32050E+0	1.99995E+0	7.02237E-8
1.32100E+0	1.99998E+0	6.46955E-8
1.32150E+0	1.99998E+0	5.81537E-8
1.32200E+0	1.99999E+0	5.71028E-8
1.32250E+0	2.00006E+0	5.43853E-8
1.32300E+0	2.00001E+0	5.38443E-8
1.32350E+0	1.99993E+0	5.21778E-8
1.32400E+0	2.00001E+0	4.74704E-8
1.32450E+0	2.00004E+0	4.64630E-8
1.32500E+0	1.99994E+0	4.81731E-8
1.32550E+0	2.00004E+0	4.46472E-8
1.32600E+0	1.99997E+0	4.14572E-8
1.32650E+0	1.99990E+0	5.96213E-8
1.32700E+0	2.00003E+0	1.57251E-7
1.32750E+0	2.00000E+0	1.25574E-7
1.32800E+0	1.99999E+0	1.10302E-7
1.32850E+0	2.00005E+0	9.14473E-8
1.32900E+0	2.00000E+0	8.55958E-8
1.32950E+0	1.99999E+0	7.74309E-8
1.33000E+0	2.00003E+0	7.19214E-8
1.33050E+0	1.99998E+0	6.46458E-8
1.33100E+0	2.00002E+0	6.38623E-8
1.33150E+0	1.99999E+0	5.82097E-8
1.33200E+0	1.99996E+0	5.84957E-8
1.33250E+0	2.00003E+0	5.45719E-8
1.33300E+0	1.99999E+0	5.04180E-8
1.33350E+0	1.99999E+0	4.84591E-8
1.33400E+0	2.00004E+0	5.03744E-8
1.33450E+0	1.99999E+0	4.57603E-8
1.33500E+0	1.99995E+0	4.71160E-8
1.33550E+0	2.00004E+0	4.19857E-8
1.33600E+0	1.99995E+0	4.29807E-8
1.33650E+0	1.99991E+0	1.04966E-7
1.33700E+0	2.00006E+0	1.43291E-7
1.33750E+0	2.00001E+0	1.19064E-7
1.33800E+0	1.99999E+0	1.01198E-7
1.33850E+0	2.00004E+0	8.87734E-8
1.33900E+0	1.99997E+0	8.33882E-8
1.33950E+0	2.00000E+0	7.38118E-8
1.34000E+0	2.00002E+0	6.83955E-8
1.34050E+0	1.99999E+0	6.66357E-8
1.34100E+0	1.99998E+0	6.35078E-8
1.34150E+0	2.00001E+0	5.60021E-8
1.34200E+0	1.99999E+0	5.54487E-8
1.34250E+0	2.00006E+0	5.43169E-8
1.34300E+0	1.99999E+0	5.12450E-8
1.34350E+0	1.99996E+0	5.00448E-8
1.34400E+0	2.00004E+0	4.74331E-8
1.34450E+0	2.00000E+0	4.78249E-8
1.34500E+0	1.99998E+0	4.51696E-8
1.34550E+0	2.00004E+0	4.39632E-8
1.34600E+0	1.99997E+0	4.37331E-8
1.34650E+0	1.99995E+0	1.42557E-7
1.34700E+0	2.00005E+0	1.32017E-7
1.34750E+0	1.99995E+0	1.15009E-7
1.34800E+0	2.00006E+0	9.71248E-8
1.34850E+0	2.00000E+0	8.58880E-8
1.34900E+0	1.99996E+0	8.04842E-8
1.34950E+0	2.00005E+0	7.20209E-8
1.35000E+0	1.99999E+0	6.58397E-8
1.35050E+0	1.99999E+0	6.45152E-8
1.35100E+0	2.00003E+0	6.09209E-8
1.35150E+0	1.99998E+0	5.74386E-8
1.35200E+0	1.99996E+0	5.58094E-8
1.35250E+0	2.00008E+0	5.03496E-8
1.35300E+0	1.99993E+0	5.13569E-8
1.35350E+0	2.00001E+0	4.87390E-8
1.35400E+0	2.00003E+0	4.54618E-8
1.35450E+0	1.99997E+0	4.86208E-8
1.35500E+0	2.00002E+0	4.31050E-8
1.35550E+0	2.00001E+0	4.29993E-8
1.35600E+0	1.99991E+0	6.54044E-8
1.35650E+0	2.00006E+0	1.56822E-7
1.35700E+0	1.99998E+0	1.23933E-7
1.35750E+0	2.00001E+0	1.06795E-7
1.35800E+0	2.00007E+0	9.31077E-8
1.35850E+0	2.00000E+0	8.46754E-8
1.35900E+0	2.00000E+0	7.64546E-8
1.35950E+0	2.00002E+0	7.01553E-8
1.36000E+0	1.99998E+0	6.84888E-8
1.36050E+0	2.00004E+0	6.11448E-8
1.36100E+0	2.00001E+0	5.83465E-8
1.36150E+0	1.99996E+0	5.81786E-8
1.36200E+0	2.00006E+0	5.22897E-8
1.36250E+0	2.00000E+0	5.17674E-8
1.36300E+0	2.00001E+0	5.04553E-8
1.36350E+0	2.00005E+0	4.87638E-8
1.36400E+0	1.99999E+0	4.63697E-8
1.36450E+0	1.99998E+0	4.52318E-8
1.36500E+0	2.00004E+0	4.34471E-8
1.36550E+0	1.99995E+0	4.39010E-8
1.36600E+0	1.99994E+0	1.10115E-7
1.36650E+0	2.00004E+0	1.42768E-7
1.36700E+0	1.99997E+0	1.16147E-7
1.36750E+0	2.00004E+0	1.02006E-7
1.36800E+0	2.00000E+0	9.00793E-8
1.36850E+0	1.99996E+0	8.10501E-8
1.36900E+0	2.00001E+0	7.32273E-8
1.36950E+0	2.00001E+0	6.89863E-8
1.37000E+0	1.99999E+0	6.61693E-8
1.37050E+0	2.00005E+0	5.95715E-8
1.37100E+0	2.00000E+0	5.93352E-8
1.37150E+0	1.99998E+0	5.58031E-8
1.37200E+0	2.00001E+0	5.16927E-8
1.37250E+0	2.00002E+0	5.25074E-8
1.37300E+0	1.99998E+0	4.97650E-8
1.37350E+0	2.00004E+0	4.48400E-8
1.37400E+0	1.99998E+0	4.65128E-8
1.37450E+0	2.00002E+0	4.50390E-8
1.37500E+0	2.00002E+0	4.35217E-8
1.37550E+0	1.99996E+0	4.39072E-8
1.37600E+0	1.99992E+0	1.47998E-7
1.37650E+0	2.00004E+0	1.33391E-7
1.37700E+0	1.99995E+0	1.10930E-7
1.37750E+0	2.00003E+0	9.46436E-8
1.37800E+0	2.00004E+0	8.56144E-8
1.37850E+0	1.99999E+0	7.94582E-8
1.37900E+0	2.00005E+0	7.14737E-8
1.37950E+0	1.99998E+0	6.73508E-8
1.38000E+0	1.99999E+0	6.18972E-8
1.38050E+0	2.00002E+0	6.27118E-8
1.38100E+0	1.99999E+0	5.64934E-8
1.38150E+0	1.99999E+0	5.55420E-8
1.38200E+0	1.99999E+0	5.18482E-8
1.38250E+0	2.00001E+0	4.80425E-8
1.38300E+0	2.00000E+0	5.04864E-8
1.38350E+0	2.00002E+0	4.48027E-8
1.38400E+0	2.00001E+0	4.67864E-8
1.38450E+0	1.99995E+0	4.60402E-8
1.38500E+0	2.00002E+0	4.26262E-8
1.38550E+0	1.99989E+0	7.35009E-8
1.38600E+0	2.00002E+0	1.51070E-7
1.38650E+0	2.00005E+0	1.26184E-7
1.38700E+0	1.99999E+0	1.03126E-7
1.38750E+0	2.00000E+0	9.37917E-8
1.38800E+0	2.00003E+0	8.14356E-8
1.38850E+0	1.99996E+0	7.62992E-8
1.38900E+0	2.00001E+0	7.13679E-8
1.38950E+0	2.00006E+0	6.36881E-8
1.39000E+0	2.00000E+0	6.35016E-8
1.39050E+0	1.99998E+0	5.91549E-8
1.39100E+0	2.00005E+0	5.44040E-8
1.39150E+0	1.99998E+0	5.37324E-8
1.39200E+0	2.00002E+0	5.30421E-8
1.39250E+0	2.00000E+0	4.72714E-8
1.39300E+0	1.99999E+0	4.82415E-8
1.39350E+0	2.00006E+0	4.78373E-8
1.39400E+0	1.99998E+0	4.49768E-8
1.39450E+0	2.00001E+0	4.55738E-8
1.39500E+0	1.99998E+0	4.48897E-8
1.39550E+0	1.99990E+0	1.16253E-7
1.39600E+0	1.99998E+0	1.43620E-7
1.39650E+0	2.00006E+0	1.17658E-7
1.39700E+0	2.00000E+0	1.00209E-7
1.39750E+0	1.99996E+0	9.06887E-8
1.39800E+0	2.00003E+0	7.80901E-8
1.39850E+0	1.99999E+0	7.56462E-8
1.39900E+0	2.00004E+0	6.83147E-8
1.39950E+0	2.00000E+0	6.56532E-8
1.40000E+0	1.99997E+0	6.00939E-8
1.40050E+0	2.00008E+0	5.89621E-8
1.40100E+0	1.99995E+0	5.49885E-8
1.40150E+0	1.99998E+0	5.46465E-8
1.40200E+0	2.00005E+0	5.03122E-8
1.40250E+0	2.00000E+0	4.89566E-8
1.40300E+0	1.99997E+0	4.85959E-8
1.40350E+0	2.00004E+0	4.45602E-8
1.40400E+0	1.99999E+0	4.50639E-8
1.40450E+0	1.99995E+0	4.72217E-8
1.40500E+0	2.00001E+0	4.47840E-8
1.40550E+0	1.99992E+0	1.53215E-7
1.40600E+0	2.00005E+0	1.32813E-7
1.40650E+0	2.00004E+0	1.09599E-7
1.40700E+0	1.99999E+0	9.49546E-8
1.40750E+0	2.00004E+0	8.61181E-8
1.40800E+0	2.00002E+0	7.71573E-8
1.40850E+0	1.99995E+0	7.44274E-8
1.40900E+0	2.00003E+0	6.76866E-8
1.40950E+0	1.99999E+0	6.08898E-8
1.41000E+0	1.99995E+0	6.24880E-8
1.41050E+0	2.00007E+0	5.43480E-8
1.41100E+0	1.99999E+0	5.62011E-8
1.41150E+0	1.99996E+0	5.26317E-8
1.41200E+0	2.00007E+0	4.92240E-8
1.41250E+0	1.99998E+0	5.01941E-8
1.41300E+0	1.99995E+0	4.65065E-8
1.41350E+0	2.00003E+0	4.55987E-8
1.41400E+0	1.99998E+0	4.48338E-8
1.41450E+0	2.00001E+0	4.47965E-8
1.41500E+0	1.99990E+0	8.02852E-8
1.41550E+0	1.99999E+0	1.51748E-7
1.41600E+0	2.00006E+0	1.21427E-7
1.41650E+0	2.00003E+0	1.04071E-7
1.41700E+0	1.99999E+0	9.24858E-8
1.41750E+0	2.00003E+0	8.16222E-8
1.41800E+0	2.00000E+0	7.69459E-8
1.41850E+0	1.99999E+0	6.85883E-8
1.41900E+0	2.00006E+0	6.60512E-8
1.41950E+0	2.00000E+0	6.37379E-8
1.42000E+0	1.99995E+0	6.07841E-8
1.42050E+0	2.00003E+0	5.49512E-8
1.42100E+0	1.99993E+0	5.40371E-8
1.42150E+0	2.00002E+0	5.27685E-8
1.42200E+0	2.00004E+0	4.80985E-8
1.42250E+0	1.99996E+0	4.97091E-8
1.42300E+0	2.00002E+0	4.63324E-8
1.42350E+0	2.00002E+0	4.46721E-8
1.42400E+0	1.99997E+0	4.49892E-8
1.42450E+0	2.00003E+0	4.37891E-8
1.42500E+0	1.99991E+0	1.24119E-7
1.42550E+0	2.00001E+0	1.40101E-7
1.42600E+0	2.00002E+0	1.16831E-7
1.42650E+0	1.99999E+0	1.00091E-7
1.42700E+0	1.99996E+0	8.95010E-8
1.42750E+0	2.00005E+0	7.99494E-8
1.42800E+0	2.00000E+0	7.32273E-8
1.42850E+0	1.99996E+0	7.01864E-8
1.42900E+0	2.00003E+0	6.44406E-8
1.42950E+0	1.99998E+0	5.98887E-8
1.43000E+0	2.00004E+0	5.64499E-8
1.43050E+0	2.00003E+0	5.54984E-8
1.43100E+0	1.99997E+0	5.32287E-8
1.43150E+0	1.99999E+0	5.24700E-8
1.43200E+0	2.00000E+0	4.71284E-8
1.43250E+0	2.00002E+0	4.96033E-8
1.43300E+0	2.00001E+0	4.60402E-8
1.43350E+0	2.00001E+0	4.60588E-8
1.43400E+0	1.99996E+0	4.37207E-8
1.43450E+0	2.00000E+0	5.09403E-8
1.43500E+0	1.99996E+0	1.55665E-7
1.43550E+0	1.99998E+0	1.31637E-7
1.43600E+0	2.00005E+0	1.07665E-7
1.43650E+0	2.00002E+0	9.60303E-8
1.43700E+0	1.99995E+0	8.66654E-8
1.43750E+0	2.00004E+0	7.74496E-8
1.43800E+0	1.99999E+0	6.98133E-8
1.43850E+0	1.99995E+0	7.00621E-8
1.43900E+0	2.00003E+0	6.02369E-8
1.43950E+0	2.00003E+0	6.07406E-8
1.44000E+0	1.99997E+0	5.78615E-8
1.44050E+0	2.00002E+0	5.52248E-8
1.44100E+0	1.99998E+0	5.15559E-8
1.44150E+0	2.00005E+0	5.08657E-8
1.44200E+0	1.99996E+0	4.78746E-8
1.44250E+0	1.99996E+0	4.83161E-8
1.44300E+0	2.00007E+0	4.36087E-8
1.44350E+0	1.99998E+0	4.40067E-8
1.44400E+0	2.00001E+0	4.48711E-8
1.44450E+0	1.99991E+0	9.09499E-8
1.44500E+0	2.00002E+0	1.45772E-7
1.44550E+0	1.99999E+0	1.24530E-7
1.44600E+0	2.00003E+0	1.02410E-7
1.44650E+0	2.00000E+0	8.93020E-8
1.44700E+0	2.00004E+0	8.19082E-8
1.44750E+0	2.00003E+0	7.54286E-8
1.44800E+0	2.00001E+0	6.93843E-8
1.44850E+0	1.99998E+0	6.91542E-8
1.44900E+0	1.99999E+0	6.08401E-8
1.44950E+0	1.99998E+0	5.82283E-8
1.45000E+0	2.00005E+0	5.69473E-8
1.45050E+0	2.00000E+0	5.13321E-8
1.45100E+0	1.99999E+0	5.35832E-8
1.45150E+0	2.00004E+0	5.09776E-8
1.45200E+0	1.99999E+0	4.56235E-8
1.45250E+0	1.99996E+0	4.99951E-8
1.45300E+0	2.00006E+0	4.45975E-8
1.45350E+0	1.99999E+0	4.40689E-8
1.45400E+0	1.99996E+0	4.51260E-8
1.45450E+0	1.99994E+0	1.29193E-7
1.45500E+0	2.00001E+0	1.39790E-7
1.45550E+0	2.00006E+0	1.14692E-7
1.45600E+0	1.99998E+0	9.83996E-8
1.45650E+0	1.99998E+0	8.92584E-8
1.45700E+0	2.00005E+0	7.95514E-8
1.45750E+0	1.99998E+0	7.27360E-8
1.45800E+0	1.99999E+0	7.00994E-8
1.45850E+0	2.00004E+0	6.24071E-8
1.45900E+0	1.99997E+0	6.06722E-8
1.45950E+0	2.00001E+0	5.92295E-8
1.46000E+0	2.00001E+0	5.44537E-8
1.46050E+0	2.00001E+0	5.43480E-8
1.46100E+0	2.00000E+0	5.28432E-8
1.46150E+0	1.99999E+0	4.78497E-8
1.46200E+0	1.99994E+0	5.00013E-8
1.46250E+0	2.00003E+0	4.65563E-8
1.46300E+0	1.99998E+0	4.28998E-8
1.46350E+0	2.00000E+0	4.51385E-8
1.46400E+0	1.99996E+0	5.45097E-8
1.46450E+0	1.99996E+0	1.57948E-7
1.46500E+0	2.00003E+0	1.28640E-7
1.46550E+0	2.00006E+0	1.09332E-7
1.46600E+0	2.00000E+0	9.26973E-8
1.46650E+0	2.00002E+0	8.79339E-8
1.46700E+0	2.00000E+0	7.51550E-8
1.46750E+0	1.99999E+0	7.26241E-8
1.46800E+0	2.00006E+0	6.59703E-8
1.46850E+0	1.99999E+0	6.28673E-8
1.46900E+0	2.00001E+0	6.11324E-8
1.46950E+0	2.00003E+0	5.53181E-8
1.47000E+0	1.99996E+0	5.49699E-8
1.47050E+0	2.00000E+0	5.34588E-8
1.47100E+0	2.00002E+0	5.06791E-8
1.47150E+0	1.99996E+0	4.95349E-8
1.47200E+0	1.99999E+0	4.72465E-8
1.47250E+0	1.99998E+0	4.41435E-8
1.47300E+0	2.00000E+0	4.51260E-8
1.47350E+0	2.00001E+0	4.37020E-8
1.47400E+0	1.99989E+0	9.79456E-8
1.47450E+0	1.99998E+0	1.46039E-7
1.47500E+0	2.00007E+0	1.21308E-7
1.47550E+0	1.99999E+0	1.01559E-7
1.47600E+0	2.00002E+0	9.23863E-8
1.47650E+0	2.00002E+0	8.24679E-8
1.47700E+0	1.99994E+0	7.52607E-8
1.47750E+0	2.00004E+0	7.00061E-8
1.47800E+0	2.00001E+0	6.45463E-8
1.47850E+0	1.99997E+0	6.26061E-8
1.47900E+0	2.00003E+0	5.78739E-8
1.47950E+0	2.00001E+0	5.52373E-8
1.48000E+0	1.99998E+0	5.54238E-8
1.48050E+0	2.00000E+0	5.32349E-8
1.48100E+0	1.99999E+0	5.04801E-8
1.48150E+0	1.99993E+0	4.84902E-8
1.48200E+0	2.00004E+0	4.46286E-8
1.48250E+0	2.00001E+0	4.62081E-8
1.48300E+0	1.99994E+0	4.33849E-8
1.48350E+0	2.00006E+0	4.47405E-8
1.48400E+0	1.99991E+0	1.35076E-7
1.48450E+0	2.00001E+0	1.35518E-7
1.48500E+0	2.00008E+0	1.13796E-7
1.48550E+0	1.99999E+0	9.75787E-8
1.48600E+0	1.99998E+0	8.87983E-8
1.48650E+0	2.00002E+0	7.84072E-8
1.48700E+0	1.99997E+0	7.11379E-8
1.48750E+0	2.00001E+0	7.05658E-8
1.48800E+0	2.00001E+0	6.18661E-8
1.48850E+0	1.99999E+0	5.98824E-8
1.48900E+0	1.99999E+0	6.10950E-8
1.48950E+0	2.00002E+0	5.45843E-8
1.49000E+0	1.99995E+0	5.37448E-8
1.49050E+0	2.00003E+0	5.02998E-8
1.49100E+0	1.99997E+0	4.78249E-8
1.49150E+0	2.00001E+0	4.94354E-8
1.49200E+0	2.00003E+0	4.58971E-8
1.49250E+0	1.99997E+0	4.41062E-8
1.49300E+0	2.00002E+0	4.53623E-8
1.49350E+0	1.99993E+0	6.15739E-8
1.49400E+0	1.99997E+0	1.56959E-7
1.49450E+0	2.00005E+0	1.28217E-7
1.49500E+0	2.00002E+0	1.05657E-7
1.49550E+0	2.00001E+0	9.54520E-8
1.49600E+0	1.99996E+0	8.73369E-8
1.49650E+0	2.00003E+0	7.45394E-8
1.49700E+0	1.99996E+0	7.40854E-8
1.49750E+0	2.00002E+0	6.49940E-8
1.49800E+0	2.00000E+0	6.21771E-8
1.49850E+0	1.99998E+0	6.04670E-8
1.49900E+0	2.00001E+0	5.73204E-8
1.49950E+0	2.00002E+0	5.40309E-8
1.50000E+0	2.00002E+0	5.18979E-8
1.50050E+0	2.00003E+0	5.29364E-8
1.50100E+0	1.99996E+0	4.65812E-8
1.50150E+0	2.00001E+0	4.99143E-8
1.50200E+0	2.00002E+0	4.47965E-8
1.50250E+0	2.00000E+0	4.25578E-8
1.50300E+0	1.99999E+0	4.59718E-8
1.50350E+0	1.99994E+0	1.03387E-7
1.50400E+0	2.00001E+0	1.46705E-7
1.50450E+0	2.00003E+0	1.17043E-7
1.50500E+0	2.00003E+0	1.01838E-7
1.50550E+0	1.99998E+0	9.17520E-8
1.50600E+0	2.00002E+0	8.14543E-8
1.50650E+0	2.00000E+0	7.39362E-8
1.50700E+0	2.00000E+0	6.86878E-8
1.50750E+0	2.00004E+0	6.81841E-8
1.50800E+0	1.99998E+0	6.05167E-8
1.50850E+0	1.99999E+0	6.00814E-8
1.50900E+0	1.99999E+0	5.85020E-8
1.50950E+0	1.99997E+0	5.31727E-8
1.51000E+0	1.99996E+0	5.30732E-8
1.51050E+0	2.00001E+0	4.76818E-8
1.51100E+0	1.99996E+0	4.85773E-8
1.51150E+0	1.99999E+0	4.78311E-8
1.51200E+0	2.00004E+0	4.48089E-8
1.51250E+0	1.99996E+0	4.27506E-8
1.51300E+0	1.99998E+0	4.61894E-8
1.51350E+0	2.00000E+0	1.42830E-7
1.51400E+0	1.99998E+0	1.35437E-7
1.51450E+0	2.00003E+0	1.13840E-7
1.51500E+0	2.00000E+0	9.61796E-8
1.51550E+0	2.00001E+0	8.69514E-8
1.51600E+0	2.00005E+0	7.98561E-8
1.51650E+0	2.00001E+0	7.22199E-8
1.51700E+0	1.99998E+0	6.87562E-8
1.51750E+0	2.00002E+0	6.44779E-8
1.51800E+0	1.99999E+0	5.89932E-8
1.51850E+0	1.99999E+0	5.91425E-8
1.51900E+0	2.00001E+0	5.57596E-8
1.51950E+0	2.00002E+0	5.00573E-8
1.52000E+0	1.99993E+0	5.25820E-8
1.52050E+0	2.00006E+0	4.84778E-8
1.52100E+0	1.99997E+0	4.86581E-8
1.52150E+0	1.99998E+0	4.53437E-8
1.52200E+0	2.00000E+0	4.78000E-8
1.52250E+0	2.00001E+0	4.15318E-8
1.52300E+0	1.99988E+0	6.93532E-8
1.52350E+0	2.00008E+0	1.56225E-7
1.52400E+0	2.00000E+0	1.25257E-7
1.52450E+0	2.00002E+0	1.06241E-7
1.52500E+0	2.00003E+0	9.52468E-8
1.52550E+0	1.99999E+0	8.13921E-8
1.52600E+0	2.00000E+0	7.68775E-8
1.52650E+0	2.00006E+0	7.31340E-8
1.52700E+0	1.99999E+0	6.60698E-8
1.52750E+0	2.00002E+0	6.24382E-8
1.52800E+0	2.00002E+0	5.89186E-8
1.52850E+0	1.99995E+0	5.71215E-8
1.52900E+0	2.00003E+0	5.62073E-8
1.52950E+0	2.00002E+0	5.05610E-8
1.53000E+0	1.99994E+0	5.07102E-8
1.53050E+0	2.00003E+0	4.84840E-8
1.53100E+0	2.00001E+0	4.61086E-8
1.53150E+0	1.99999E+0	4.48587E-8
1.53200E+0	2.00001E+0	4.55178E-8
1.53250E+0	2.00001E+0	4.44420E-8
1.53300E+0	1.99990E+0	1.12198E-7
1.53350E+0	2.00006E+0	1.45082E-7
1.53400E+0	2.00001E+0	1.16446E-7
1.53450E+0	2.00003E+0	1.02690E-7
1.53500E+0	2.00002E+0	8.83568E-8
1.53550E+0	1.99996E+0	8.22876E-8
1.53600E+0	1.99999E+0	7.52794E-8
1.53650E+0	2.00002E+0	6.64740E-8
1.53700E+0	1.99996E+0	6.59952E-8
1.53750E+0	2.00006E+0	6.11324E-8
1.53800E+0	2.00001E+0	5.80293E-8
1.53850E+0	1.99996E+0	5.70904E-8
1.53900E+0	2.00003E+0	5.03060E-8
1.53950E+0	1.99999E+0	5.21218E-8
1.54000E+0	2.00003E+0	4.81482E-8
1.54050E+0	2.00006E+0	5.00884E-8
1.54100E+0	1.99997E+0	4.53437E-8
1.54150E+0	1.99999E+0	4.58412E-8
1.54200E+0	2.00003E+0	4.26138E-8
1.54250E+0	1.99998E+0	4.71719E-8
1.54300E+0	1.99993E+0	1.48017E-7
1.54350E+0	2.00007E+0	1.34635E-7
1.54400E+0	2.00001E+0	1.10936E-7
1.54450E+0	1.99998E+0	9.60677E-8
1.54500E+0	2.00006E+0	8.68892E-8
1.54550E+0	1.99999E+0	7.86498E-8
1.54600E+0	2.00003E+0	7.13742E-8
1.54650E+0	2.00002E+0	6.84142E-8
1.54700E+0	1.99995E+0	6.45401E-8
1.54750E+0	2.00006E+0	5.88004E-8
1.54800E+0	1.99999E+0	5.76811E-8
1.54850E+0	1.99999E+0	5.62073E-8
1.54900E+0	1.99998E+0	5.41055E-8
1.54950E+0	2.00003E+0	4.99516E-8
1.55000E+0	1.99996E+0	4.92489E-8
1.55050E+0	2.00004E+0	4.58598E-8
1.55100E+0	2.00001E+0	4.57665E-8
1.55150E+0	1.99995E+0	4.72403E-8
1.55200E+0	2.00000E+0	4.27008E-8
1.55250E+0	1.99992E+0	7.73252E-8
1.55300E+0	2.00000E+0	1.51294E-7
1.55350E+0	2.00005E+0	1.24362E-7
1.55400E+0	1.99998E+0	1.05688E-7
1.55450E+0	1.99999E+0	9.38974E-8
1.55500E+0	2.00006E+0	8.13486E-8
1.55550E+0	1.99999E+0	7.55965E-8
1.55600E+0	1.99995E+0	7.21204E-8
1.55650E+0	2.00008E+0	6.39555E-8
1.55700E+0	2.00000E+0	6.39493E-8
1.55750E+0	1.99996E+0	6.01561E-8
1.55800E+0	2.00004E+0	5.53989E-8
1.55850E+0	1.99994E+0	5.39438E-8
1.55900E+0	2.00002E+0	5.26193E-8
1.55950E+0	2.00001E+0	4.95163E-8
1.56000E+0	1.99995E+0	4.83721E-8
1.56050E+0	2.00003E+0	4.68237E-8
1.56100E+0	2.00002E+0	4.64133E-8
1.56150E+0	1.99996E+0	4.24956E-8
1.56200E+0	2.00000E+0	4.37953E-8
1.56250E+0	1.99998E+0	1.17919E-7
1.56300E+0	1.99998E+0	1.41189E-7
1.56350E+0	2.00010E+0	1.15687E-7
1.56400E+0	2.00002E+0	1.00899E-7
1.56450E+0	2.00001E+0	8.98989E-8
1.56500E+0	2.00000E+0	8.24928E-8
1.56550E+0	2.00001E+0	7.28852E-8
1.56600E+0	2.00005E+0	6.84639E-8
1.56650E+0	1.99997E+0	6.66295E-8
1.56700E+0	2.00003E+0	5.90989E-8
1.56750E+0	2.00003E+0	5.94223E-8
1.56800E+0	2.00005E+0	5.39625E-8
1.56850E+0	2.00000E+0	5.50942E-8
1.56900E+0	2.00000E+0	5.03122E-8
1.56950E+0	1.99998E+0	5.08968E-8
1.57000E+0	2.00002E+0	4.75699E-8
1.57050E+0	2.00000E+0	4.53375E-8
1.57100E+0	1.99995E+0	4.67677E-8
1.57150E+0	2.00001E+0	4.06985E-8
1.57200E+0	1.99999E+0	4.84529E-8
1.57250E+0	1.99997E+0	1.52867E-7
1.57300E+0	2.00001E+0	1.32477E-7
1.57350E+0	1.99997E+0	1.08772E-7
1.57400E+0	2.00005E+0	9.56324E-8
1.57450E+0	2.00002E+0	8.60311E-8
1.57500E+0	1.99999E+0	7.81585E-8
1.57550E+0	2.00002E+0	7.20893E-8
1.57600E+0	1.99999E+0	6.83396E-8
1.57650E+0	1.99994E+0	6.41359E-8
1.57700E+0	2.00004E+0	5.94782E-8
1.57750E+0	2.00000E+0	5.46776E-8
1.57800E+0	1.99997E+0	5.60021E-8
1.57850E+0	2.00007E+0	5.16990E-8
1.57900E+0	1.99998E+0	4.97153E-8
1.57950E+0	1.99997E+0	5.11704E-8
1.58000E+0	2.00004E+0	4.76445E-8
1.58050E+0	1.99998E+0	4.39943E-8
1.58100E+0	2.00001E+0	4.42803E-8
1.58150E+0	2.00004E+0	4.43674E-8
1.58200E+0	1.99990E+0	8.43086E-8
1.58250E+0	2.00001E+0	1.50803E-7
1.58300E+0	2.00006E+0	1.22303E-7
1.58350E+0	1.99995E+0	1.04438E-7
1.58400E+0	1.99999E+0	9.36922E-8
1.58450E+0	2.00005E+0	8.07703E-8
1.58500E+0	1.99998E+0	7.53664E-8
1.58550E+0	1.99999E+0	7.30158E-8
1.58600E+0	2.00001E+0	6.49070E-8
1.58650E+0	1.99997E+0	6.41607E-8
1.58700E+0	1.99999E+0	5.98700E-8
1.58750E+0	1.99999E+0	5.33717E-8
1.58800E+0	2.00001E+0	5.41428E-8
1.58850E+0	2.00000E+0	5.17176E-8
1.58900E+0	2.00006E+0	4.89442E-8
1.58950E+0	1.99997E+0	4.87638E-8
1.59000E+0	2.00001E+0	4.84591E-8
1.59050E+0	2.00003E+0	4.49644E-8
1.59100E+0	1.99993E+0	4.35403E-8
1.59150E+0	2.00001E+0	4.35901E-8
1.59200E+0	1.99995E+0	1.24772E-7
1.59250E+0	2.00002E+0	1.38577E-7
1.59300E+0	1.99998E+0	1.16433E-7
1.59350E+0	2.00004E+0	9.90214E-8
1.59400E+0	1.99997E+0	8.97746E-8
1.59450E+0	2.00000E+0	8.02976E-8
1.59500E+0	2.00005E+0	7.14674E-8
1.59550E+0	1.99997E+0	6.92412E-8
1.59600E+0	1.99998E+0	6.63123E-8
1.59650E+0	2.00001E+0	6.00503E-8
1.59700E+0	1.99999E+0	5.62820E-8
1.59750E+0	2.00005E+0	5.62073E-8
1.59800E+0	1.99998E+0	5.21716E-8
1.59850E+0	2.00001E+0	5.18482E-8
1.59900E+0	1.99996E+0	5.04242E-8
1.59950E+0	1.99998E+0	4.67988E-8
1.60000E+0	1.99999E+0	4.59469E-8
1.60050E+0	2.00006E+0	4.38575E-8
1.60100E+0	1.99996E+0	4.31050E-8
1.60150E+0	1.99998E+0	5.13072E-8
1.60200E+0	1.99998E+0	1.58899E-7
1.60250E+0	2.00004E+0	1.27670E-7
1.60300E+0	2.00000E+0	1.08542E-7
1.60350E+0	2.00008E+0	9.62915E-8
1.60400E+0	1.99996E+0	8.41842E-8
1.60450E+0	2.00001E+0	7.85503E-8
1.60500E+0	2.00002E+0	7.30780E-8
1.60550E+0	1.99999E+0	6.60076E-8
1.60600E+0	1.99999E+0	6.27554E-8
1.60650E+0	2.00001E+0	6.13314E-8
1.60700E+0	2.00000E+0	5.60270E-8
1.60750E+0	1.99995E+0	5.46527E-8
1.60800E+0	2.00006E+0	5.11828E-8
1.60850E+0	1.99997E+0	4.95474E-8
1.60900E+0	2.00007E+0	4.74518E-8
1.60950E+0	2.00000E+0	4.91991E-8
1.61000E+0	1.99999E+0	4.47529E-8
1.61050E+0	1.99999E+0	4.50203E-8
1.61100E+0	2.00000E+0	4.42990E-8
1.61150E+0	1.99989E+0	9.08504E-8
1.61200E+0	2.00001E+0	1.50162E-7
1.61250E+0	2.00005E+0	1.20351E-7
1.61300E+0	1.99999E+0	1.03362E-7
1.61350E+0	2.00001E+0	8.95632E-8
1.61400E+0	2.00002E+0	8.20264E-8
1.61450E+0	1.99997E+0	7.63241E-8
1.61500E+0	2.00006E+0	6.88619E-8
1.61550E+0	1.99998E+0	6.56159E-8
1.61600E+0	1.99995E+0	6.31285E-8
1.61650E+0	2.00002E+0	5.77806E-8
1.61700E+0	1.99996E+0	5.60332E-8
1.61750E+0	1.99998E+0	5.38319E-8
1.61800E+0	2.00003E+0	4.93733E-8
1.61850E+0	2.00000E+0	4.89566E-8
1.61900E+0	1.99998E+0	5.01817E-8
1.61950E+0	1.99998E+0	4.48649E-8
1.62000E+0	1.99999E+0	4.54308E-8
1.62050E+0	2.00000E+0	4.65501E-8
1.62100E+0	1.99997E+0	4.18551E-8
1.62150E+0	1.99989E+0	1.34485E-7
1.62200E+0	2.00004E+0	1.37818E-7
1.62250E+0	2.00005E+0	1.11458E-7
1.62300E+0	1.99997E+0	9.95935E-8
1.62350E+0	2.00001E+0	8.84500E-8
1.62400E+0	2.00003E+0	7.85627E-8
1.62450E+0	1.99999E+0	7.35320E-8
1.62500E+0	2.00001E+0	7.18468E-8
1.62550E+0	2.00001E+0	6.17853E-8
1.62600E+0	1.99999E+0	6.08898E-8
1.62650E+0	2.00006E+0	5.74262E-8
1.62700E+0	1.99999E+0	5.60705E-8
1.62750E+0	1.99995E+0	5.30048E-8
1.62800E+0	1.99998E+0	5.18917E-8
1.62850E+0	2.00003E+0	4.87390E-8
1.62900E+0	1.99995E+0	4.89007E-8
1.62950E+0	2.00005E+0	4.63760E-8
1.63000E+0	1.99998E+0	4.30988E-8
1.63050E+0	1.99997E+0	4.53250E-8
1.63100E+0	2.00000E+0	5.49139E-8
1.63150E+0	2.00001E+0	1.57021E-7
1.63200E+0	1.99997E+0	1.28659E-7
1.63250E+0	2.00008E+0	1.07118E-7
1.63300E+0	1.99998E+0	9.27905E-8
1.63350E+0	2.00003E+0	8.60559E-8
1.63400E+0	2.00005E+0	7.49684E-8
1.63450E+0	1.99996E+0	7.19649E-8
1.63500E+0	1.99998E+0	6.86505E-8
1.63550E+0	2.00005E+0	6.20589E-8
1.63600E+0	1.99996E+0	5.99073E-8
1.63650E+0	1.99999E+0	5.83651E-8
1.63700E+0	1.99999E+0	5.17674E-8
1.63750E+0	1.99999E+0	5.39687E-8
1.63800E+0	2.00002E+0	5.18233E-8
1.63850E+0	1.99999E+0	4.79181E-8
1.63900E+0	1.99998E+0	4.80052E-8
1.63950E+0	2.00005E+0	4.45291E-8
1.64000E+0	1.99996E+0	4.44296E-8
1.64050E+0	1.99995E+0	4.51882E-8
1.64100E+0	1.99997E+0	9.96122E-8
1.64150E+0	1.99999E+0	1.46033E-7
1.64200E+0	2.00001E+0	1.21986E-7
1.64250E+0	2.00005E+0	1.03679E-7
1.64300E+0	1.99995E+0	9.00482E-8
1.64350E+0	2.00000E+0	8.26171E-8
1.64400E+0	2.00002E+0	7.64671E-8
1.64450E+0	1.99999E+0	6.89490E-8
1.64500E+0	2.00001E+0	6.53236E-8
1.64550E+0	2.00004E+0	6.19843E-8
1.64600E+0	1.99993E+0	5.86823E-8
1.64650E+0	1.99999E+0	5.72396E-8
1.64700E+0	2.00004E+0	5.10522E-8
1.64750E+0	1.99999E+0	5.29427E-8
1.64800E+0	1.99999E+0	5.16616E-8
1.64850E+0	2.00003E+0	4.51385E-8
1.64900E+0	1.99999E+0	4.64133E-8
1.64950E+0	2.00001E+0	4.66682E-8
1.65000E+0	2.00003E+0	4.41746E-8
1.65050E+0	1.99994E+0	4.50701E-8
1.65100E+0	2.00002E+0	1.38465E-7
1.65150E+0	1.99999E+0	1.37078E-7
1.65200E+0	1.99998E+0	1.14325E-7
1.65250E+0	2.00005E+0	9.81508E-8
1.65300E+0	2.00000E+0	8.51605E-8
1.65350E+0	2.00000E+0	8.11185E-8
1.65400E+0	2.00005E+0	7.25681E-8
1.65450E+0	1.99996E+0	6.64678E-8
1.65500E+0	1.99999E+0	6.48697E-8
1.65550E+0	2.00006E+0	5.96959E-8
1.65600E+0	1.99996E+0	5.90119E-8
1.65650E+0	1.99998E+0	5.63504E-8
1.65700E+0	2.00001E+0	5.05859E-8
1.65750E+0	2.00001E+0	5.16554E-8
1.65800E+0	1.99997E+0	5.12139E-8
1.65850E+0	2.00001E+0	4.53748E-8
1.65900E+0	1.99998E+0	4.62454E-8
1.65950E+0	2.00005E+0	4.41995E-8
1.66000E+0	1.99999E+0	4.32729E-8
1.66050E+0	1.99996E+0	6.11386E-8
1.66100E+0	2.00004E+0	1.58669E-7
1.66150E+0	1.99997E+0	1.26408E-7
1.66200E+0	2.00004E+0	1.07149E-7
1.66250E+0	2.00002E+0	9.39658E-8
1.66300E+0	2.00001E+0	8.37116E-8
1.66350E+0	1.99996E+0	7.83451E-8
1.66400E+0	2.00004E+0	6.87748E-8
1.66450E+0	1.99997E+0	6.65549E-8
1.66500E+0	2.00002E+0	6.37317E-8
1.66550E+0	1.99999E+0	5.99198E-8
1.66600E+0	1.99997E+0	5.45346E-8
1.66650E+0	2.00007E+0	5.35334E-8
1.66700E+0	2.00003E+0	5.16554E-8
1.66750E+0	1.99998E+0	5.15435E-8
1.66800E+0	2.00004E+0	4.81731E-8
1.66850E+0	1.99995E+0	4.65314E-8
1.66900E+0	2.00005E+0	4.51571E-8
1.66950E+0	2.00005E+0	4.50701E-8
1.67000E+0	1.99996E+0	4.40689E-8
1.67050E+0	1.99989E+0	1.08492E-7
1.67100E+0	2.00003E+0	1.44360E-7
1.67150E+0	1.99998E+0	1.17285E-7
1.67200E+0	2.00004E+0	1.03362E-7
1.67250E+0	2.00000E+0	8.72437E-8
1.67300E+0	1.99998E+0	8.34566E-8
1.67350E+0	2.00004E+0	7.45518E-8
1.67400E+0	1.99998E+0	6.97574E-8
1.67450E+0	2.00001E+0	6.44033E-8
1.67500E+0	2.00003E+0	6.21584E-8
1.67550E+0	1.99998E+0	5.93352E-8
1.67600E+0	2.00000E+0	5.60830E-8
1.67650E+0	2.00001E+0	5.38692E-8
1.67700E+0	1.99996E+0	5.04739E-8
1.67750E+0	2.00004E+0	5.13756E-8
1.67800E+0	2.00002E+0	4.60961E-8
1.67850E+0	1.99998E+0	4.77938E-8
1.67900E+0	2.00003E+0	4.30491E-8
1.67950E+0	2.00001E+0	4.37518E-8
1.68000E+0	1.99997E+0	4.63884E-8
1.68050E+0	1.99999E+0	1.43514E-7
1.68100E+0	1.99995E+0	1.35455E-7
1.68150E+0	2.00004E+0	1.12236E-7
1.68200E+0	2.00001E+0	9.73300E-8
1.68250E+0	1.99999E+0	8.55025E-8
1.68300E+0	2.00006E+0	8.07454E-8
1.68350E+0	1.99998E+0	7.14177E-8
1.68400E+0	1.99997E+0	6.88122E-8
1.68450E+0	2.00005E+0	6.36695E-8
1.68500E+0	1.99995E+0	6.17045E-8
1.68550E+0	2.00005E+0	5.79734E-8
1.68600E+0	2.00000E+0	5.28680E-8
1.68650E+0	1.99995E+0	5.52497E-8
1.68700E+0	2.00005E+0	4.94852E-8
1.68750E+0	2.00001E+0	4.84032E-8
1.68800E+0	2.00001E+0	4.74207E-8
1.68850E+0	2.00001E+0	4.64133E-8
1.68900E+0	1.99997E+0	4.52131E-8
1.68950E+0	2.00004E+0	4.17059E-8
1.69000E+0	1.99991E+0	6.98755E-8
1.69050E+0	1.99999E+0	1.57481E-7
1.69100E+0	2.00007E+0	1.25319E-7
1.69150E+0	1.99998E+0	1.03971E-7
1.69200E+0	2.00002E+0	9.41897E-8
1.69250E+0	2.00005E+0	8.32576E-8
1.69300E+0	1.99996E+0	7.73625E-8
1.69350E+0	1.99998E+0	7.23567E-8
1.69400E+0	2.00003E+0	6.48510E-8
1.69450E+0	1.99992E+0	6.34518E-8
1.69500E+0	2.00005E+0	5.83776E-8
1.69550E+0	1.99998E+0	5.57907E-8
1.69600E+0	1.99998E+0	5.58653E-8
1.69650E+0	2.00004E+0	5.11455E-8
1.69700E+0	2.00000E+0	5.17114E-8
1.69750E+0	1.99999E+0	4.68175E-8
1.69800E+0	2.00004E+0	4.73460E-8
1.69850E+0	2.00000E+0	4.50017E-8
1.69900E+0	1.99998E+0	4.57603E-8
1.69950E+0	2.00002E+0	4.42119E-8
1.70000E+0	1.99990E+0	1.13647E-7
1.70050E+0	2.00001E+0	1.41618E-7
1.70100E+0	2.00002E+0	1.19406E-7
1.70150E+0	1.99997E+0	9.95873E-8
1.70200E+0	2.00001E+0	9.00420E-8
1.70250E+0	2.00006E+0	7.80839E-8
1.70300E+0	1.99998E+0	7.46078E-8
1.70350E+0	2.00004E+0	7.03419E-8
1.70400E+0	2.00003E+0	6.21087E-8
1.70450E+0	2.00001E+0	6.16671E-8
1.70500E+0	1.99997E+0	6.03675E-8
1.70550E+0	1.99999E+0	5.35707E-8
1.70600E+0	1.99999E+0	5.41366E-8
1.70650E+0	2.00004E+0	5.13756E-8
1.70700E+0	1.99998E+0	4.88633E-8
1.70750E+0	1.99998E+0	4.82850E-8
1.70800E+0	2.00002E+0	4.72590E-8
1.70850E+0	2.00001E+0	4.44607E-8
1.70900E+0	1.99997E+0	4.31859E-8
1.70950E+0	2.00003E+0	4.77751E-8
1.71000E+0	1.99995E+0	1.50106E-7
1.71050E+0	2.00003E+0	1.34691E-7
1.71100E+0	2.00002E+0	1.09400E-7
1.71150E+0	1.99996E+0	9.85737E-8
1.71200E+0	2.00003E+0	8.57761E-8
1.71250E+0	1.99998E+0	7.83264E-8
1.71300E+0	1.99999E+0	7.25619E-8
1.71350E+0	2.00003E+0	6.86567E-8
1.71400E+0	1.99999E+0	6.13127E-8
1.71450E+0	2.00004E+0	6.15677E-8
1.71500E+0	2.00001E+0	5.84335E-8
1.71550E+0	1.99999E+0	5.43791E-8
1.71600E+0	2.00002E+0	5.40184E-8
1.71650E+0	2.00001E+0	4.88882E-8
1.71700E+0	1.99996E+0	4.92427E-8
1.71750E+0	2.00009E+0	4.72092E-8
1.71800E+0	1.99995E+0	4.58039E-8
1.71850E+0	1.99998E+0	4.50328E-8
1.71900E+0	2.00006E+0	4.38450E-8
1.71950E+0	1.99986E+0	7.74061E-8
1.72000E+0	2.00002E+0	1.53184E-7
1.72050E+0	2.00006E+0	1.23012E-7
1.72100E+0	1.99997E+0	1.03691E-7
1.72150E+0	2.00001E+0	9.43576E-8
1.72200E+0	2.00004E+0	8.05899E-8
1.72250E+0	1.99998E+0	7.68962E-8
1.72300E+0	2.00003E+0	6.97387E-8
1.72350E+0	2.00001E+0	6.57278E-8
1.72400E+0	1.99997E+0	6.46955E-8
1.72450E+0	2.00003E+0	5.78801E-8
1.72500E+0	1.99998E+0	5.52186E-8
1.72550E+0	1.99995E+0	5.61887E-8
1.72600E+0	2.00005E+0	5.04553E-8
1.72650E+0	1.99995E+0	5.12699E-8
1.72700E+0	2.00002E+0	4.70786E-8
1.72750E+0	2.00003E+0	4.83907E-8
1.72800E+0	1.99997E+0	4.42803E-8
1.72850E+0	1.99998E+0	4.67553E-8
1.72900E+0	2.00000E+0	4.09846E-8
1.72950E+0	1.99991E+0	1.24287E-7
1.73000E+0	2.00004E+0	1.39628E-7
1.73050E+0	2.00001E+0	1.15936E-7
1.73100E+0	2.00000E+0	1.01658E-7
1.73150E+0	2.00004E+0	8.78344E-8
1.73200E+0	2.00001E+0	8.01360E-8
1.73250E+0	1.99999E+0	7.79035E-8
1.73300E+0	2.00000E+0	6.83706E-8
1.73350E+0	1.99995E+0	6.45525E-8
1.73400E+0	2.00002E+0	6.13003E-8
1.73450E+0	2.00005E+0	5.69846E-8
1.73500E+0	1.99995E+0	5.64872E-8
1.73550E+0	2.00005E+0	5.35521E-8
1.73600E+0	1.99998E+0	4.88198E-8
1.73650E+0	1.99999E+0	5.03060E-8
1.73700E+0	2.00006E+0	4.93733E-8
1.73750E+0	1.99997E+0	4.50017E-8
1.73800E+0	2.00004E+0	4.33787E-8
1.73850E+0	2.00006E+0	4.47840E-8
1.73900E+0	1.99989E+0	4.88198E-8
1.73950E+0	1.99997E+0	1.53638E-7
1.74000E+0	2.00008E+0	1.30959E-7
1.74050E+0	1.99994E+0	1.09058E-7
1.74100E+0	2.00006E+0	9.57754E-8
1.74150E+0	2.00001E+0	8.57823E-8
1.74200E+0	2.00000E+0	7.61624E-8
1.74250E+0	2.00004E+0	7.33641E-8
1.74300E+0	2.00000E+0	6.63870E-8
1.74350E+0	1.99994E+0	6.41670E-8
1.74400E+0	2.00006E+0	5.79361E-8
1.74450E+0	2.00002E+0	5.84087E-8
1.74500E+0	1.99998E+0	5.53989E-8
1.74550E+0	2.00006E+0	5.02936E-8
1.74600E+0	1.99998E+0	5.17114E-8
1.74650E+0	1.99996E+0	5.05423E-8
1.74700E+0	2.00002E+0	4.64879E-8
1.74750E+0	1.99996E+0	4.43798E-8
1.74800E+0	2.00003E+0	4.61148E-8
1.74850E+0	1.99999E+0	4.08229E-8
1.74900E+0	1.99984E+0	8.82946E-8
1.74950E+0	2.00006E+0	1.50031E-7
1.75000E+0	2.00003E+0	1.21619E-7
1.75050E+0	1.99999E+0	1.02442E-7
1.75100E+0	2.00007E+0	9.26040E-8
1.75150E+0	1.99999E+0	8.14729E-8
1.75200E+0	1.99999E+0	7.66723E-8
1.75250E+0	2.00003E+0	7.21390E-8
1.75300E+0	1.99996E+0	6.39369E-8
1.75350E+0	2.00002E+0	6.26186E-8
1.75400E+0	2.00002E+0	5.90430E-8
1.75450E+0	1.99995E+0	5.48082E-8
1.75500E+0	2.00004E+0	5.42547E-8
1.75550E+0	1.99999E+0	5.26193E-8
1.75600E+0	1.99998E+0	4.83161E-8
1.75650E+0	2.00006E+0	4.89007E-8
1.75700E+0	2.00001E+0	4.64381E-8
1.75750E+0	1.99997E+0	4.55302E-8
1.75800E+0	2.00007E+0	4.32419E-8
1.75850E+0	2.00002E+0	4.58163E-8
1.75900E+0	1.99990E+0	1.29262E-7
1.75950E+0	2.00005E+0	1.39553E-7
1.76000E+0	1.99999E+0	1.12435E-7
1.76050E+0	2.00001E+0	1.00464E-7
1.76100E+0	2.00006E+0	8.86863E-8
1.76150E+0	1.99996E+0	7.92467E-8
1.76200E+0	2.00001E+0	7.36501E-8
1.76250E+0	2.00005E+0	6.97138E-8
1.76300E+0	1.99996E+0	6.42105E-8
1.76350E+0	2.00000E+0	6.09272E-8
1.76400E+0	2.00004E+0	5.62882E-8
1.76450E+0	2.00003E+0	5.59648E-8
1.76500E+0	1.99999E+0	5.45532E-8
1.76550E+0	2.00002E+0	5.04677E-8
1.76600E+0	2.00001E+0	4.84716E-8
1.76650E+0	1.99999E+0	4.95598E-8
1.76700E+0	1.99998E+0	4.74580E-8
1.76750E+0	1.99995E+0	4.41871E-8
1.76800E+0	2.00005E+0	4.35839E-8
1.76850E+0	1.99997E+0	5.09652E-8
1.76900E+0	1.99996E+0	1.59079E-7
1.76950E+0	1.99999E+0	1.31289E-7
1.77000E+0	2.00001E+0	1.08044E-7
1.77050E+0	2.00000E+0	9.71124E-8
1.77100E+0	2.00006E+0	8.54403E-8
1.77150E+0	1.99998E+0	7.53167E-8
1.77200E+0	1.99997E+0	7.50182E-8
1.77250E+0	2.00006E+0	6.51619E-8
1.77300E+0	1.99996E+0	6.41234E-8
1.77350E+0	2.00000E+0	6.18350E-8
1.77400E+0	2.00003E+0	5.61825E-8
1.77450E+0	1.99996E+0	5.43231E-8
1.77500E+0	2.00005E+0	5.28680E-8
1.77550E+0	1.99998E+0	4.79928E-8
1.77600E+0	2.00001E+0	4.96033E-8
1.77650E+0	2.00000E+0	4.92116E-8
1.77700E+0	1.99996E+0	4.45664E-8
1.77750E+0	1.99999E+0	4.34844E-8
1.77800E+0	2.00003E+0	4.35279E-8
1.77850E+0	1.99990E+0	9.37357E-8
1.77900E+0	2.00003E+0	1.48141E-7
1.77950E+0	2.00000E+0	1.18777E-7
1.78000E+0	1.99997E+0	1.04606E-7
1.78050E+0	2.00004E+0	9.19262E-8
1.78100E+0	2.00002E+0	8.08511E-8
1.78150E+0	1.99998E+0	7.46575E-8
1.78200E+0	2.00007E+0	6.90609E-8
1.78250E+0	1.99997E+0	6.54355E-8
1.78300E+0	1.99999E+0	6.25502E-8
1.78350E+0	2.00004E+0	5.95404E-8
1.78400E+0	1.99998E+0	5.54052E-8
1.78450E+0	1.99996E+0	5.51564E-8
1.78500E+0	2.00003E+0	5.14005E-8
1.78550E+0	1.99999E+0	4.91059E-8
1.78600E+0	1.99995E+0	4.76943E-8
1.78650E+0	2.00003E+0	4.80549E-8
1.78700E+0	1.99999E+0	4.26573E-8
1.78750E+0	1.99999E+0	4.70102E-8
1.78800E+0	2.00003E+0	4.32419E-8
1.78850E+0	1.99991E+0	1.32900E-7
1.78900E+0	2.00008E+0	1.38123E-7
1.78950E+0	1.99998E+0	1.12217E-7
1.79000E+0	1.99999E+0	9.94070E-8
1.79050E+0	2.00008E+0	8.67897E-8
1.79100E+0	1.99997E+0	7.87617E-8
1.79150E+0	1.99997E+0	7.48689E-8
1.79200E+0	2.00007E+0	6.59890E-8
1.79250E+0	2.00000E+0	6.51433E-8
1.79300E+0	1.99999E+0	6.06908E-8
1.79350E+0	2.00006E+0	5.59897E-8
1.79400E+0	1.99997E+0	5.45843E-8
1.79450E+0	1.99999E+0	5.61887E-8
1.79500E+0	2.00000E+0	4.95163E-8
1.79550E+0	2.00001E+0	5.09154E-8
1.79600E+0	1.99994E+0	4.76818E-8
1.79650E+0	2.00003E+0	4.56857E-8
1.79700E+0	1.99996E+0	4.59842E-8
1.79750E+0	2.00002E+0	4.43674E-8
1.79800E+0	1.99991E+0	5.62136E-8
1.79850E+0	1.99997E+0	1.60460E-7
1.79900E+0	2.00005E+0	1.26731E-7
1.79950E+0	2.00000E+0	1.08946E-7
1.80000E+0	2.00002E+0	9.46001E-8
1.80050E+0	2.00003E+0	8.40598E-8
1.80100E+0	1.99997E+0	7.84259E-8
1.80150E+0	1.99995E+0	7.24810E-8
1.80200E+0	2.00006E+0	6.42665E-8
1.80250E+0	1.99998E+0	6.28860E-8
1.80300E+0	2.00003E+0	5.88751E-8
1.80350E+0	2.00002E+0	5.60581E-8
1.80400E+0	1.99997E+0	5.45159E-8
1.80450E+0	2.00003E+0	5.32784E-8
1.80500E+0	2.00001E+0	4.98459E-8
1.80550E+0	1.99994E+0	4.82975E-8
1.80600E+0	2.00007E+0	4.58101E-8
1.80650E+0	1.99998E+0	4.56297E-8
1.80700E+0	1.99996E+0	4.58536E-8
1.80750E+0	2.00006E+0	4.10778E-8
1.80800E+0	1.99991E+0	1.03356E-7
1.80850E+0	1.99995E+0	1.46568E-7
1.80900E+0	2.00003E+0	1.19859E-7
1.80950E+0	1.99999E+0	1.01745E-7
1.81000E+0	2.00000E+0	9.00606E-8
1.81050E+0	2.00002E+0	8.18523E-8
1.81100E+0	1.99996E+0	7.35755E-8
1.81150E+0	2.00008E+0	6.96952E-8
1.81200E+0	1.99994E+0	6.45276E-8
1.81250E+0	2.00004E+0	6.16423E-8
1.81300E+0	2.00003E+0	5.63379E-8
1.81350E+0	2.00003E+0	5.73453E-8
1.81400E+0	1.99999E+0	5.31479E-8
1.81450E+0	2.00004E+0	5.13445E-8
1.81500E+0	1.99995E+0	5.01070E-8
1.81550E+0	1.99997E+0	4.93670E-8
1.81600E+0	2.00004E+0	4.33849E-8
1.81650E+0	2.00003E+0	4.62454E-8
1.81700E+0	2.00000E+0	4.53997E-8
1.81750E+0	1.99999E+0	4.21723E-8
1.81800E+0	1.99987E+0	1.44286E-7
1.81850E+0	2.00006E+0	1.34000E-7
1.81900E+0	2.00001E+0	1.14244E-7
1.81950E+0	1.99997E+0	9.68636E-8
1.82000E+0	2.00005E+0	8.70882E-8
1.82050E+0	2.00000E+0	7.79657E-8
1.82100E+0	1.99998E+0	7.55965E-8
1.82150E+0	2.00004E+0	6.77239E-8
1.82200E+0	1.99997E+0	6.24569E-8
1.82250E+0	2.00002E+0	6.21584E-8
1.82300E+0	2.00006E+0	5.49388E-8
1.82350E+0	1.99996E+0	5.58591E-8
1.82400E+0	1.99999E+0	5.46341E-8
1.82450E+0	2.00001E+0	4.96593E-8
1.82500E+0	1.99994E+0	4.92178E-8
1.82550E+0	2.00005E+0	4.67118E-8
1.82600E+0	1.99999E+0	4.53375E-8
1.82650E+0	2.00001E+0	4.50701E-8
1.82700E+0	2.00007E+0	4.39756E-8
1.82750E+0	1.99985E+0	6.36757E-8
1.82800E+0	2.00006E+0	1.57413E-7
1.82850E+0	2.00004E+0	1.25972E-7
1.82900E+0	1.99998E+0	1.05035E-7
1.82950E+0	1.99997E+0	9.60241E-8
1.83000E+0	2.00004E+0	8.34504E-8
1.83050E+0	2.00001E+0	7.44834E-8
1.83100E+0	1.99996E+0	7.34698E-8
1.83150E+0	2.00004E+0	6.49754E-8
1.83200E+0	1.99999E+0	6.24009E-8
1.83250E+0	1.99998E+0	6.27865E-8
1.83300E+0	2.00001E+0	5.52621E-8
1.83350E+0	1.99999E+0	5.60705E-8
1.83400E+0	2.00001E+0	5.26939E-8
1.83450E+0	2.00000E+0	4.82912E-8
1.83500E+0	1.99998E+0	4.93857E-8
1.83550E+0	2.00004E+0	4.74953E-8
1.83600E+0	1.99999E+0	4.42306E-8
1.83650E+0	2.00003E+0	4.48711E-8
1.83700E+0	2.00002E+0	4.47592E-8
1.83750E+0	1.99990E+0	1.07702E-7
1.83800E+0	1.99999E+0	1.44845E-7
1.83850E+0	2.00006E+0	1.18852E-7
1.83900E+0	2.00001E+0	9.93821E-8
1.83950E+0	2.00003E+0	8.89973E-8
1.84000E+0	2.00006E+0	8.05775E-8
1.84050E+0	1.99999E+0	7.41289E-8
1.84100E+0	2.00001E+0	7.06279E-8
1.84150E+0	2.00002E+0	6.59952E-8
1.84200E+0	1.99999E+0	6.09023E-8
1.84250E+0	1.99999E+0	5.73888E-8
1.84300E+0	2.00004E+0	5.53989E-8
1.84350E+0	2.00000E+0	5.44102E-8
1.84400E+0	1.99995E+0	5.36329E-8
1.84450E+0	2.00002E+0	4.72154E-8
1.84500E+0	1.99999E+0	4.83970E-8
1.84550E+0	2.00000E+0	4.83596E-8
1.84600E+0	2.00000E+0	4.59655E-8
1.84650E+0	1.99998E+0	4.19982E-8
1.84700E+0	1.99996E+0	4.88074E-8
1.84750E+0	1.99996E+0	1.45940E-7
1.84800E+0	2.00000E+0	1.33944E-7
1.84850E+0	1.99997E+0	1.12316E-7
1.84900E+0	2.00003E+0	9.68077E-8
1.84950E+0	1.99997E+0	8.52102E-8
1.85000E+0	2.00000E+0	8.17030E-8
1.85050E+0	2.00004E+0	6.98755E-8
1.85100E+0	1.99998E+0	6.96206E-8
1.85150E+0	2.00000E+0	6.55475E-8
1.85200E+0	2.00001E+0	5.97083E-8
1.85250E+0	1.99995E+0	5.75381E-8
1.85300E+0	2.00005E+0	5.54052E-8
1.85350E+0	2.00001E+0	5.19912E-8
1.85400E+0	1.99994E+0	5.19601E-8
1.85450E+0	2.00005E+0	4.97339E-8
1.85500E+0	1.99997E+0	4.56671E-8
1.85550E+0	1.99998E+0	4.72590E-8
1.85600E+0	2.00005E+0	4.59842E-8
1.85650E+0	1.99998E+0	4.34595E-8
1.85700E+0	1.99986E+0	7.35444E-8
1.85750E+0	2.00002E+0	1.52942E-7
1.85800E+0	2.00001E+0	1.26557E-7
1.85850E+0	2.00001E+0	1.06826E-7
1.85900E+0	2.00004E+0	9.10929E-8
1.85950E+0	1.99995E+0	8.42277E-8
1.86000E+0	1.99996E+0	7.87803E-8
1.86050E+0	2.00003E+0	6.83333E-8
1.86100E+0	1.99998E+0	6.72202E-8
1.86150E+0	2.00003E+0	6.35078E-8
1.86200E+0	2.00004E+0	5.81475E-8
1.86250E+0	2.00000E+0	5.50010E-8
1.86300E+0	1.99996E+0	5.56042E-8
1.86350E+0	2.00008E+0	4.97899E-8
1.86400E+0	1.99998E+0	5.00200E-8
1.86450E+0	2.00007E+0	4.89815E-8
1.86500E+0	2.00002E+0	4.65314E-8
1.86550E+0	1.99997E+0	4.80549E-8
1.86600E+0	2.00006E+0	4.33724E-8
1.86650E+0	1.99996E+0	4.29869E-8
1.86700E+0	1.99992E+0	1.18442E-7
1.86750E+0	2.00007E+0	1.41270E-7
1.86800E+0	2.00002E+0	1.15046E-7
1.86850E+0	1.99999E+0	1.01192E-7
1.86900E+0	2.00003E+0	9.13354E-8
1.86950E+0	1.99999E+0	7.82953E-8
1.87000E+0	2.00001E+0	7.50928E-8
1.87050E+0	2.00003E+0	6.93096E-8
1.87100E+0	1.99999E+0	6.47702E-8
1.87150E+0	1.99996E+0	6.19532E-8
1.87200E+0	2.00002E+0	5.74075E-8
1.87250E+0	1.99999E+0	5.38568E-8
1.87300E+0	2.00001E+0	5.48642E-8
1.87350E+0	1.99998E+0	4.94665E-8
1.87400E+0	2.00002E+0	5.08097E-8
1.87450E+0	2.00000E+0	4.78622E-8
1.87500E+0	2.00004E+0	4.56360E-8
1.87550E+0	1.99994E+0	4.62267E-8
1.87600E+0	1.99997E+0	4.49084E-8
1.87650E+0	1.99999E+0	4.68734E-8
1.87700E+0	1.99988E+0	1.51611E-7
1.87750E+0	2.00001E+0	1.32893E-7
1.87800E+0	2.00001E+0	1.09002E-7
1.87850E+0	1.99999E+0	9.69880E-8
1.87900E+0	2.00002E+0	8.76354E-8
1.87950E+0	2.00002E+0	7.81772E-8
1.88000E+0	1.99999E+0	7.14177E-8
1.88050E+0	2.00007E+0	6.72327E-8
1.88100E+0	1.99999E+0	6.29668E-8
1.88150E+0	1.99995E+0	6.24755E-8
1.88200E+0	2.00006E+0	5.66489E-8
1.88250E+0	1.99997E+0	5.46776E-8
1.88300E+0	1.99997E+0	5.38443E-8
1.88350E+0	2.00003E+0	4.92986E-8
1.88400E+0	1.99999E+0	4.82664E-8
1.88450E+0	1.99998E+0	4.85462E-8
1.88500E+0	2.00000E+0	4.45166E-8
1.88550E+0	2.00003E+0	4.53810E-8
1.88600E+0	2.00001E+0	4.20479E-8
1.88650E+0	1.99993E+0	8.23435E-8
1.88700E+0	1.99998E+0	1.52034E-7
1.88750E+0	2.00000E+0	1.22695E-7
1.88800E+0	2.00003E+0	1.04463E-7
1.88850E+0	1.99996E+0	9.24858E-8
1.88900E+0	2.00001E+0	8.21072E-8
1.88950E+0	1.99999E+0	7.51550E-8
1.89000E+0	1.99997E+0	7.18095E-8
1.89050E+0	2.00004E+0	6.48883E-8
1.89100E+0	2.00001E+0	6.16236E-8
1.89150E+0	1.99997E+0	6.14557E-8
1.89200E+0	2.00006E+0	5.41801E-8
1.89250E+0	1.99997E+0	5.32287E-8
1.89300E+0	1.99999E+0	5.31727E-8
1.89350E+0	2.00004E+0	4.81917E-8
1.89400E+0	1.99998E+0	4.76445E-8
1.89450E+0	1.99998E+0	4.95847E-8
1.89500E+0	2.00000E+0	4.21598E-8
1.89550E+0	1.99999E+0	4.50079E-8
1.89600E+0	2.00000E+0	4.42057E-8
1.89650E+0	1.99996E+0	1.23118E-7
1.89700E+0	1.99999E+0	1.38272E-7
1.89750E+0	2.00002E+0	1.17011E-7
1.89800E+0	2.00001E+0	9.97987E-8
1.89850E+0	1.99994E+0	8.90284E-8
1.89900E+0	2.00005E+0	8.10501E-8
1.89950E+0	2.00002E+0	7.12249E-8
1.90000E+0	1.99998E+0	7.08394E-8
1.90050E+0	1.99996E+0	6.58833E-8
1.90100E+0	2.00006E+0	5.91549E-8
1.90150E+0	1.99995E+0	5.86636E-8
1.90200E+0	2.00006E+0	5.47771E-8
1.90250E+0	1.99997E+0	5.17052E-8
1.90300E+0	2.00000E+0	5.16679E-8
1.90350E+0	2.00004E+0	4.80301E-8
1.90400E+0	2.00001E+0	4.97091E-8
1.90450E+0	1.99995E+0	4.72403E-8
1.90500E+0	2.00004E+0	4.27630E-8
1.90550E+0	1.99999E+0	4.55862E-8
1.90600E+0	1.99996E+0	4.85586E-8
1.90650E+0	1.99999E+0	1.55099E-7
1.90700E+0	1.99999E+0	1.28907E-7
1.90750E+0	2.00001E+0	1.09605E-7
1.90800E+0	2.00009E+0	9.56510E-8
1.90850E+0	1.99993E+0	8.63233E-8
1.90900E+0	2.00003E+0	7.82704E-8
1.90950E+0	2.00003E+0	6.98506E-8
1.91000E+0	1.99998E+0	6.84764E-8
1.91050E+0	2.00005E+0	6.24134E-8
1.91100E+0	2.00001E+0	6.04297E-8
1.91150E+0	1.99998E+0	5.70531E-8
1.91200E+0	2.00006E+0	5.54673E-8
1.91250E+0	1.99999E+0	4.98645E-8
1.91300E+0	2.00004E+0	5.16990E-8
1.91350E+0	2.00004E+0	4.84156E-8
1.91400E+0	1.99995E+0	4.68361E-8
1.91450E+0	1.99999E+0	4.63946E-8
1.91500E+0	2.00003E+0	4.38202E-8
1.91550E+0	1.99998E+0	4.31548E-8
1.91600E+0	1.99993E+0	9.20443E-8
1.91650E+0	2.00003E+0	1.49397E-7
1.91700E+0	1.99996E+0	1.23143E-7
1.91750E+0	2.00004E+0	1.03001E-7
1.91800E+0	1.99999E+0	9.22309E-8
1.91850E+0	1.99998E+0	8.20699E-8
1.91900E+0	2.00002E+0	7.62619E-8
1.91950E+0	2.00000E+0	7.07150E-8
1.92000E+0	1.99998E+0	6.64927E-8
1.92050E+0	2.00004E+0	6.29171E-8
1.92100E+0	1.99998E+0	5.65058E-8
1.92150E+0	1.99995E+0	5.93166E-8
1.92200E+0	2.00005E+0	5.20472E-8
1.92250E+0	1.99996E+0	5.16679E-8
1.92300E+0	1.99997E+0	5.17363E-8
1.92350E+0	2.00002E+0	4.85649E-8
1.92400E+0	1.99997E+0	4.63511E-8
1.92450E+0	2.00004E+0	4.45353E-8
1.92500E+0	2.00003E+0	4.61459E-8
1.92550E+0	1.99995E+0	4.43114E-8
1.92600E+0	1.99995E+0	1.28783E-7
1.92650E+0	2.00003E+0	1.38571E-7
1.92700E+0	1.99999E+0	1.15824E-7
1.92750E+0	2.00006E+0	9.92515E-8
1.92800E+0	2.00000E+0	8.72312E-8
1.92850E+0	2.00000E+0	8.16844E-8
1.92900E+0	2.00004E+0	7.38802E-8
1.92950E+0	1.99996E+0	6.66668E-8
1.93000E+0	2.00001E+0	6.53609E-8
1.93050E+0	2.00003E+0	5.98389E-8
1.93100E+0	2.00000E+0	5.98203E-8
1.93150E+0	2.00003E+0	5.40495E-8
1.93200E+0	1.99999E+0	5.24141E-8
1.93250E+0	1.99998E+0	5.09838E-8
1.93300E+0	2.00003E+0	5.08346E-8
1.93350E+0	2.00005E+0	4.50328E-8
1.93400E+0	1.99997E+0	4.82228E-8
1.93450E+0	2.00007E+0	4.36087E-8
1.93500E+0	1.99995E+0	4.30988E-8
1.93550E+0	1.99993E+0	5.36889E-8
1.93600E+0	2.00003E+0	1.56791E-7
1.93650E+0	1.99999E+0	1.29231E-7
1.93700E+0	2.00006E+0	1.07920E-7
1.93750E+0	2.00002E+0	9.61796E-8
1.93800E+0	1.99998E+0	8.51729E-8
1.93850E+0	1.99999E+0	7.79471E-8
1.93900E+0	2.00002E+0	7.09824E-8
1.93950E+0	1.99996E+0	6.60760E-8
1.94000E+0	2.00001E+0	6.36757E-8
1.94050E+0	2.00004E+0	5.64872E-8
1.94100E+0	1.99999E+0	5.70282E-8
1.94150E+0	2.00005E+0	5.42299E-8
1.94200E+0	1.99999E+0	5.30421E-8
1.94250E+0	1.99997E+0	5.02998E-8
1.94300E+0	2.00006E+0	4.90126E-8
1.94350E+0	1.99999E+0	4.47405E-8
1.94400E+0	2.00004E+0	4.62329E-8
1.94450E+0	2.00003E+0	4.45415E-8
1.94500E+0	1.99997E+0	4.36647E-8
1.94550E+0	1.99994E+0	9.58625E-8
1.94600E+0	2.00001E+0	1.47227E-7
1.94650E+0	1.99996E+0	1.22533E-7
1.94700E+0	2.00007E+0	1.02068E-7
1.94750E+0	1.99998E+0	8.91154E-8
1.94800E+0	2.00002E+0	8.29094E-8
1.94850E+0	2.00004E+0	7.37372E-8
1.94900E+0	2.00002E+0	6.91293E-8
1.94950E+0	1.99999E+0	6.77861E-8
1.95000E+0	2.00000E+0	6.13998E-8
1.95050E+0	1.99993E+0	5.96772E-8
1.95100E+0	2.00000E+0	5.63504E-8
1.95150E+0	2.00003E+0	5.08408E-8
1.95200E+0	1.99996E+0	5.40993E-8
1.95250E+0	2.00003E+0	4.90561E-8
1.95300E+0	2.00003E+0	4.61397E-8
1.95350E+0	1.99997E+0	4.66309E-8
1.95400E+0	2.00006E+0	4.66558E-8
1.95450E+0	1.99997E+0	4.19235E-8
1.95500E+0	2.00000E+0	4.53002E-8
1.95550E+0	1.99994E+0	1.37918E-7
1.95600E+0	2.00006E+0	1.35039E-7
1.95650E+0	1.99994E+0	1.15202E-7
1.95700E+0	2.00007E+0	9.80016E-8
1.95750E+0	1.99997E+0	8.60559E-8
1.95800E+0	2.00002E+0	7.93711E-8
1.95850E+0	2.00003E+0	7.28977E-8
1.95900E+0	1.99997E+0	6.85012E-8
1.95950E+0	1.99999E+0	6.45401E-8
1.96000E+0	2.00005E+0	5.88813E-8
1.96050E+0	1.99997E+0	5.76065E-8
1.96100E+0	2.00002E+0	5.39998E-8
1.96150E+0	2.00005E+0	5.28618E-8
1.96200E+0	1.99995E+0	5.13134E-8
1.96250E+0	2.00005E+0	4.97961E-8
1.96300E+0	1.99999E+0	4.52566E-8
1.96350E+0	1.99994E+0	4.76196E-8
1.96400E+0	2.00007E+0	4.32916E-8
1.96450E+0	1.99996E+0	4.34160E-8
1.96500E+0	1.99990E+0	5.97643E-8
1.96550E+0	2.00005E+0	1.57232E-7
1.96600E+0	2.00003E+0	1.23684E-7
1.96650E+0	1.99997E+0	1.09524E-7
1.96700E+0	2.00006E+0	9.43203E-8
1.96750E+0	1.99995E+0	8.32328E-8
1.96800E+0	1.99997E+0	7.76175E-8
1.96850E+0	2.00008E+0	7.12871E-8
1.96900E+0	1.99997E+0	6.40799E-8
1.96950E+0	1.99997E+0	6.38996E-8
1.97000E+0	2.00005E+0	5.84087E-8
1.97050E+0	1.99996E+0	5.86761E-8
1.97100E+0	2.00001E+0	5.25447E-8
1.97150E+0	2.00002E+0	5.36142E-8
1.97200E+0	1.99993E+0	4.96531E-8
1.97250E+0	2.00005E+0	4.61894E-8
1.97300E+0	2.00003E+0	4.92116E-8
1.97350E+0	1.99995E+0	4.49768E-8
1.97400E+0	2.00001E+0	4.54556E-8
1.97450E+0	2.00000E+0	4.06488E-8
1.97500E+0	1.99991E+0	1.05159E-7
1.97550E+0	2.00006E+0	1.44068E-7
1.97600E+0	2.00003E+0	1.20388E-7
1.97650E+0	1.99998E+0	1.02118E-7
1.97700E+0	2.00003E+0	9.03405E-8
1.97750E+0	2.00002E+0	8.04966E-8
1.97800E+0	1.99999E+0	7.30594E-8
1.97850E+0	2.00001E+0	7.21826E-8
1.97900E+0	2.00001E+0	6.30041E-8
1.97950E+0	1.99998E+0	6.32404E-8
1.98000E+0	2.00002E+0	5.91673E-8
1.98050E+0	1.99998E+0	5.33655E-8
1.98100E+0	1.99997E+0	5.47771E-8
1.98150E+0	2.00004E+0	5.20596E-8
1.98200E+0	1.99997E+0	5.08346E-8
1.98250E+0	1.99997E+0	4.89131E-8
1.98300E+0	2.00003E+0	4.52255E-8
1.98350E+0	2.00001E+0	4.44918E-8
1.98400E+0	1.99995E+0	4.61210E-8
1.98450E+0	2.00004E+0	4.54059E-8
1.98500E+0	1.99991E+0	1.41201E-7
1.98550E+0	2.00003E+0	1.36345E-7
1.98600E+0	2.00003E+0	1.12497E-7
1.98650E+0	2.00000E+0	9.71870E-8
1.98700E+0	2.00003E+0	8.82013E-8
1.98750E+0	2.00002E+0	8.03474E-8
1.98800E+0	1.99999E+0	7.07958E-8
1.98850E+0	2.00002E+0	6.86256E-8
1.98900E+0	2.00003E+0	6.35140E-8
1.98950E+0	1.99999E+0	6.18724E-8
1.99000E+0	1.99997E+0	5.92730E-8
1.99050E+0	2.00005E+0	5.16865E-8
1.99100E+0	1.99999E+0	5.23021E-8
1.99150E+0	2.00005E+0	5.32411E-8
1.99200E+0	1.99998E+0	4.71657E-8
1.99250E+0	1.99998E+0	4.92240E-8
1.99300E+0	2.00005E+0	4.44234E-8
1.99350E+0	1.99995E+0	4.48587E-8
1.99400E+0	1.99998E+0	4.38699E-8
1.99450E+0	1.99995E+0	6.68347E-8
1.99500E+0	1.99997E+0	1.54403E-7
1.99550E+0	2.00003E+0	1.26339E-7
1.99600E+0	2.00004E+0	1.04183E-7
1.99650E+0	2.00005E+0	9.40218E-8
1.99700E+0	1.99996E+0	8.57637E-8
1.99750E+0	2.00002E+0	7.67469E-8
1.99800E+0	1.99998E+0	6.93718E-8
1.99850E+0	2.00001E+0	6.57340E-8
1.99900E+0	2.00005E+0	6.22890E-8
1.99950E+0	1.99996E+0	5.91735E-8
