## Header ##
[General info]
User	Giorgos_Psaltakis
Device	Sample
Cell area (cm2)	1
Test	Memristor
Date	2024-03-03
Time	03:27:07
Note	

[Acquisition Settings]
Sampling time (s)	5.000E-1
Voltage Range (V)	6.000E+0
Current Range (A)	1.000E-6
Current Limit (A)	1.000E-6

[Waveform Settings]
V_HRS (V)	0.1000
V_LRS (V)	0.1000
V_READ (V)	0.1000
t_HRS (s)	0.0220
t_LRS (s)	0.0220
t_READ (s)	0.0000
d_HRS (s)	0.0000
d_LRS (s)	0.0000
d_READ (s)	0.0000
Cycles	1

## Data ##
Time (s)	Voltage (V)	Current (A)
0.00000E+0	9.85245E-2	1.07728E-7
5.00000E-4	1.00155E-1	2.83096E-9
1.00000E-3	9.96955E-2	3.73167E-9
1.50000E-3	9.97537E-2	1.61825E-7
2.00000E-3	1.00449E-1	2.92502E-8
2.50000E-3	1.00089E-1	1.00254E-8
3.00000E-3	9.99945E-2	5.77994E-9
3.50000E-3	9.99945E-2	5.14289E-9
4.00000E-3	9.99530E-2	2.63461E-9
4.50000E-3	1.00031E-1	2.35910E-9
5.00000E-3	1.00036E-1	2.41146E-9
5.50000E-3	1.00064E-1	2.71626E-9
6.00000E-3	9.99447E-2	3.15010E-9
6.50000E-3	9.98893E-2	9.18578E-10
7.00000E-3	1.00050E-1	2.08982E-9
7.50000E-3	1.00019E-1	-3.24967E-10
8.00000E-3	1.00042E-1	1.95642E-9
8.50000E-3	9.99641E-2	2.26435E-9
9.00000E-3	1.00064E-1	8.37545E-10
9.50000E-3	9.99253E-2	4.54196E-10
1.00000E-2	1.00022E-1	1.99881E-9
1.05000E-2	9.99586E-2	-9.84452E-10
1.10000E-2	9.88069E-2	1.02682E-7
1.15000E-2	1.01066E-1	1.22661E-7
1.20000E-2	1.00208E-1	1.65586E-8
1.25000E-2	1.00019E-1	8.41226E-9
1.30000E-2	1.00008E-1	3.14138E-9
1.35000E-2	9.99779E-2	3.64004E-9
1.40000E-2	1.00003E-1	4.64173E-9
1.45000E-2	1.00011E-1	1.49017E-9
1.50000E-2	9.98893E-2	1.88100E-9
1.55000E-2	9.99973E-2	1.38919E-9
1.60000E-2	1.00064E-1	2.13158E-9
1.65000E-2	1.00094E-1	-1.14905E-10
1.70000E-2	9.98755E-2	1.98759E-9
1.75000E-2	1.00130E-1	1.24832E-9
1.80000E-2	9.99641E-2	2.62210E-10
1.85000E-2	1.00036E-1	2.62089E-9
1.90000E-2	1.00039E-1	9.57848E-10
1.95000E-2	9.98727E-2	9.95210E-11
2.00000E-2	1.00136E-1	2.34161E-10
2.05000E-2	9.95654E-2	8.08439E-9
2.10000E-2	9.90145E-2	1.58218E-7
2.15000E-2	1.01296E-1	6.38401E-8
2.20000E-2	1.00105E-1	9.15652E-9
2.25000E-2	9.99641E-2	7.79018E-9
2.30000E-2	1.00083E-1	3.64877E-9
2.35000E-2	1.00014E-1	2.52241E-9
2.40000E-2	9.99226E-2	2.94440E-9
2.45000E-2	9.99198E-2	2.17895E-9
2.50000E-2	1.00180E-1	8.91151E-10
2.55000E-2	9.98921E-2	6.35586E-10
2.60000E-2	9.99862E-2	3.46489E-9
2.65000E-2	1.00025E-1	1.00647E-9
2.70000E-2	9.99419E-2	1.01769E-9
2.75000E-2	1.00086E-1	6.59272E-10
2.80000E-2	1.00028E-1	1.51760E-9
2.85000E-2	9.99253E-2	3.92487E-10
2.90000E-2	1.00025E-1	4.63546E-10
2.95000E-2	1.00055E-1	-1.92821E-10
3.00000E-2	1.00050E-1	1.34428E-10
3.05000E-2	9.88705E-2	5.28333E-8
3.10000E-2	1.00617E-1	1.58111E-7
3.15000E-2	1.00390E-1	2.20900E-8
3.20000E-2	9.99170E-2	8.38110E-9
3.25000E-2	1.00119E-1	4.51270E-9
3.30000E-2	9.98866E-2	3.27726E-9
3.35000E-2	1.00055E-1	3.31840E-9
3.40000E-2	1.00019E-1	9.89638E-10
3.45000E-2	9.99890E-2	2.45322E-9
3.50000E-2	9.99807E-2	2.03559E-9
3.55000E-2	1.00133E-1	1.29756E-9
3.60000E-2	9.97980E-2	1.97762E-9
3.65000E-2	1.00042E-1	-8.68549E-11
3.70000E-2	1.00116E-1	1.00584E-9
3.75000E-2	9.99530E-2	2.11413E-9
3.80000E-2	1.00133E-1	-7.50117E-11
3.85000E-2	9.99502E-2	9.76136E-12
3.90000E-2	9.99530E-2	1.42909E-9
3.95000E-2	1.00080E-1	7.02905E-10
4.00000E-2	9.99502E-2	1.30255E-9
4.05000E-2	9.86657E-2	1.09958E-7
4.10000E-2	1.01213E-1	1.07882E-7
4.15000E-2	1.00152E-1	1.47247E-8
4.20000E-2	9.99779E-2	7.40434E-9
4.25000E-2	1.00067E-1	2.68634E-9
4.30000E-2	1.00017E-1	2.95625E-9
4.35000E-2	1.00036E-1	2.85277E-9
4.40000E-2	9.99419E-2	2.39089E-9
4.45000E-2	1.00067E-1	7.47785E-10
4.50000E-2	1.00039E-1	2.45509E-9
4.55000E-2	9.99890E-2	1.69463E-9
4.60000E-2	9.99558E-2	1.70024E-9
4.65000E-2	1.00006E-1	-8.12450E-11
4.70000E-2	9.99253E-2	1.74885E-9
4.75000E-2	9.99918E-2	3.30777E-10
4.80000E-2	1.00042E-1	1.11617E-9
4.85000E-2	1.00100E-1	-9.23365E-10
4.90000E-2	1.00000E-1	2.46382E-9
4.95000E-2	9.99336E-2	1.29694E-9
5.00000E-2	9.93827E-2	9.33978E-9
5.05000E-2	9.93107E-2	1.63045E-7
5.10000E-2	1.01210E-1	4.96288E-8
5.15000E-2	1.00067E-1	1.00348E-8
5.20000E-2	1.00114E-1	5.76872E-9
5.25000E-2	9.99613E-2	5.04316E-9
5.30000E-2	1.00022E-1	1.20967E-9
5.35000E-2	9.99419E-2	2.60656E-9
5.40000E-2	1.00039E-1	8.32558E-10
5.45000E-2	1.00111E-1	2.78608E-9
5.50000E-2	9.98976E-2	5.38969E-10
5.55000E-2	1.00072E-1	3.99343E-10
5.60000E-2	1.00008E-1	3.42437E-9
5.65000E-2	9.99558E-2	1.32558E-10
5.70000E-2	9.99973E-2	-3.62991E-10
5.75000E-2	1.00097E-1	2.22072E-9
5.80000E-2	9.99392E-2	1.02638E-10
5.85000E-2	1.00072E-1	9.68444E-10
5.90000E-2	1.00114E-1	5.12166E-10
5.95000E-2	9.98672E-2	1.10118E-10
6.00000E-2	9.88262E-2	5.96114E-8
6.05000E-2	1.00880E-1	1.49407E-7
6.10000E-2	1.00213E-1	1.80614E-8
6.15000E-2	1.00011E-1	9.08234E-9
6.20000E-2	1.00022E-1	3.36079E-9
6.25000E-2	1.00072E-1	3.92677E-9
6.30000E-2	9.99696E-2	3.22677E-9
6.35000E-2	1.00144E-1	7.12255E-10
6.40000E-2	9.99475E-2	1.81493E-9
6.45000E-2	1.00006E-1	2.06052E-9
6.50000E-2	9.99170E-2	2.51867E-9
6.55000E-2	1.00064E-1	-7.73142E-10
6.60000E-2	1.00011E-1	1.52196E-9
6.65000E-2	9.99752E-2	2.75740E-9
6.70000E-2	1.00031E-1	1.05131E-10
6.75000E-2	9.98672E-2	1.67219E-9
6.80000E-2	9.99696E-2	-9.35208E-10
6.85000E-2	1.00031E-1	8.34428E-10
6.90000E-2	9.99862E-2	1.73074E-10
6.95000E-2	1.00072E-1	5.03440E-10
7.00000E-2	9.87875E-2	1.19284E-7
7.05000E-2	1.01152E-1	9.84587E-8
7.10000E-2	1.00033E-1	1.22620E-8
7.15000E-2	9.99835E-2	6.95242E-9
7.20000E-2	1.00139E-1	3.03790E-9
7.25000E-2	1.00017E-1	3.05972E-9
7.30000E-2	9.99558E-2	2.31920E-9
7.35000E-2	9.99835E-2	2.10166E-9
7.40000E-2	9.99752E-2	2.64957E-9
7.45000E-2	9.98478E-2	7.48409E-10
7.50000E-2	1.00078E-1	1.25518E-9
7.55000E-2	1.00103E-1	9.02371E-10
7.60000E-2	9.99364E-2	6.80466E-10
7.65000E-2	1.00025E-1	7.59629E-10
7.70000E-2	1.00036E-1	1.97263E-9
7.75000E-2	9.99641E-2	1.46898E-9
7.80000E-2	9.99253E-2	5.53306E-10
7.85000E-2	9.99253E-2	-3.35564E-10
7.90000E-2	1.00014E-1	1.59739E-9
7.95000E-2	9.92360E-2	1.43931E-8
8.00000E-2	9.96457E-2	1.63407E-7
8.05000E-2	1.01049E-1	4.25496E-8
8.10000E-2	1.00127E-1	8.47460E-9
8.15000E-2	9.99364E-2	5.87032E-9
8.20000E-2	9.98949E-2	3.17815E-9
8.25000E-2	1.00127E-1	1.80308E-9
8.30000E-2	1.00047E-1	1.21217E-9
8.35000E-2	1.00008E-1	2.42829E-9
8.40000E-2	1.00008E-1	1.33434E-9
8.45000E-2	1.00069E-1	1.65660E-9
8.50000E-2	9.99419E-2	3.17687E-10
8.55000E-2	1.00014E-1	1.74262E-9
8.60000E-2	9.99835E-2	5.91329E-10
8.65000E-2	9.99696E-2	7.49655E-10
8.70000E-2	1.00130E-1	8.98008E-10
8.75000E-2	9.99586E-2	-1.17398E-10
8.80000E-2	9.99392E-2	1.01956E-9
8.85000E-2	1.00028E-1	9.59094E-10
8.90000E-2	1.00141E-1	1.05883E-9
8.95000E-2	9.87210E-2	6.88978E-8
9.00000E-2	1.00850E-1	1.37978E-7
9.05000E-2	1.00227E-1	1.84647E-8
9.10000E-2	9.99419E-2	6.54102E-9
9.15000E-2	1.00094E-1	3.61885E-9
9.20000E-2	9.99752E-2	4.10816E-9
9.25000E-2	1.00069E-1	7.65862E-10
9.30000E-2	1.00014E-1	1.48394E-9
9.35000E-2	1.00014E-1	3.15883E-9
9.40000E-2	9.99447E-2	1.32998E-9
9.45000E-2	1.00061E-1	-1.59161E-10
9.50000E-2	1.00055E-1	2.33790E-9
9.55000E-2	9.99918E-2	1.13300E-9
9.60000E-2	9.99336E-2	2.73430E-10
9.65000E-2	9.99198E-2	1.47708E-9
9.70000E-2	9.99973E-2	-4.83917E-10
9.75000E-2	1.00050E-1	1.97201E-9
9.80000E-2	1.00036E-1	9.37278E-10
9.85000E-2	1.00022E-1	-1.52305E-10
9.90000E-2	9.98174E-2	2.49744E-10
9.95000E-2	9.88041E-2	1.26555E-7
