## Header ##
[General info]
User	Giorgos_Psaltakis
Device	Sample
Cell area (cm2)	1
Test	Memristor
Date	2024-03-03
Time	03:40:50
Note	

[Acquisition Settings]
Sampling time (s)	5.000E-1
Voltage Range (V)	6.000E+0
Current Range (A)	1.000E-5
Current Limit (A)	1.000E-5

[Waveform Settings]
V_HRS (V)	2.0000
V_LRS (V)	2.0000
V_READ (V)	2.0000
t_HRS (s)	0.0200
t_LRS (s)	0.0200
t_READ (s)	0.0000
d_HRS (s)	0.0000
d_LRS (s)	0.0000
d_READ (s)	0.0000
Cycles	10

## Data ##
Time (s)	Voltage (V)	Current (A)
0.00000E+0	1.88491E+0	1.28563E-6
5.00000E-4	2.00006E+0	4.34035E-8
1.00000E-3	2.00000E+0	2.90513E-8
1.50000E-3	1.99994E+0	2.55628E-8
2.00000E-3	2.00003E+0	1.77524E-8
2.50000E-3	1.99998E+0	1.77462E-8
3.00000E-3	1.99996E+0	1.83556E-8
3.50000E-3	2.00000E+0	1.36233E-8
4.00000E-3	2.00000E+0	1.40151E-8
4.50000E-3	2.00002E+0	1.42203E-8
5.00000E-3	2.00004E+0	1.24045E-8
5.50000E-3	1.99993E+0	1.27528E-8
6.00000E-3	2.00004E+0	1.33559E-8
6.50000E-3	2.00000E+0	1.05141E-8
7.00000E-3	1.99999E+0	1.14096E-8
7.50000E-3	2.00001E+0	1.22366E-8
8.00000E-3	1.99999E+0	9.00302E-9
8.50000E-3	2.00001E+0	1.07318E-8
9.00000E-3	2.00000E+0	1.09121E-8
9.50000E-3	1.99997E+0	9.89848E-9
1.00000E-2	1.99996E+0	1.33062E-8
1.05000E-2	2.00002E+0	7.17480E-9
1.10000E-2	1.99997E+0	1.07753E-8
1.15000E-2	2.00002E+0	1.14096E-8
1.20000E-2	2.00005E+0	1.11360E-8
1.25000E-2	1.99997E+0	1.25102E-8
1.30000E-2	1.99996E+0	1.10489E-8
1.35000E-2	2.00004E+0	1.05452E-8
1.40000E-2	1.99996E+0	1.29580E-8
1.45000E-2	2.00001E+0	1.00166E-8
1.50000E-2	2.00003E+0	1.12976E-8
1.55000E-2	1.99998E+0	1.06696E-8
1.60000E-2	1.99998E+0	1.40524E-8
1.65000E-2	2.00003E+0	8.36252E-9
1.70000E-2	1.99998E+0	1.17827E-8
1.75000E-2	2.00001E+0	1.14096E-8
1.80000E-2	2.00000E+0	1.03276E-8
1.85000E-2	1.99996E+0	1.01597E-8
1.90000E-2	2.00003E+0	1.13847E-8
1.95000E-2	2.00000E+0	9.94201E-9
2.00000E-2	1.99999E+0	9.25176E-9
2.05000E-2	2.00004E+0	9.92335E-9
2.10000E-2	1.99999E+0	3.98839E-8
2.15000E-2	1.99994E+0	4.61521E-8
2.20000E-2	2.00001E+0	4.39756E-8
2.25000E-2	2.00001E+0	4.01388E-8
2.30000E-2	1.99995E+0	3.81178E-8
2.35000E-2	2.00004E+0	3.74152E-8
2.40000E-2	1.99999E+0	3.50397E-8
2.45000E-2	1.99995E+0	3.51019E-8
2.50000E-2	2.00003E+0	3.13833E-8
2.55000E-2	2.00001E+0	3.14890E-8
2.60000E-2	1.99997E+0	3.15512E-8
2.65000E-2	1.99998E+0	3.17812E-8
2.70000E-2	2.00001E+0	2.58426E-8
2.75000E-2	2.00002E+0	2.90327E-8
2.80000E-2	2.00005E+0	2.66883E-8
2.85000E-2	1.99999E+0	2.75216E-8
2.90000E-2	1.99995E+0	2.59608E-8
2.95000E-2	2.00007E+0	2.46984E-8
3.00000E-2	1.99995E+0	2.56871E-8
3.05000E-2	1.99990E+0	3.73094E-8
3.10000E-2	2.00006E+0	1.42252E-7
3.15000E-2	1.99999E+0	1.08505E-7
3.20000E-2	2.00003E+0	9.09312E-8
3.25000E-2	2.00003E+0	7.56711E-8
3.30000E-2	1.99999E+0	6.82276E-8
3.35000E-2	1.99999E+0	6.37752E-8
3.40000E-2	2.00001E+0	5.50258E-8
3.45000E-2	2.00002E+0	5.23270E-8
3.50000E-2	1.99998E+0	5.09590E-8
3.55000E-2	2.00003E+0	4.79617E-8
3.60000E-2	1.99998E+0	4.24024E-8
3.65000E-2	2.00003E+0	4.17805E-8
3.70000E-2	2.00003E+0	4.08540E-8
3.75000E-2	1.99997E+0	3.89822E-8
3.80000E-2	2.00002E+0	3.87832E-8
3.85000E-2	2.00002E+0	3.58854E-8
3.90000E-2	1.99999E+0	3.38085E-8
3.95000E-2	2.00004E+0	3.25585E-8
4.00000E-2	2.00003E+0	3.53693E-8
4.05000E-2	1.99985E+0	9.69258E-8
4.10000E-2	2.00002E+0	1.45958E-7
4.15000E-2	2.00002E+0	1.09139E-7
4.20000E-2	1.99996E+0	9.26289E-8
4.25000E-2	2.00003E+0	7.71262E-8
4.30000E-2	2.00003E+0	7.04414E-8
4.35000E-2	1.99995E+0	6.63932E-8
4.40000E-2	2.00004E+0	5.95280E-8
4.45000E-2	1.99998E+0	5.33966E-8
4.50000E-2	2.00001E+0	5.24016E-8
4.55000E-2	2.00001E+0	4.76756E-8
4.60000E-2	2.00001E+0	4.80425E-8
4.65000E-2	1.99998E+0	4.32978E-8
4.70000E-2	2.00007E+0	4.24210E-8
4.75000E-2	1.99999E+0	4.04125E-8
4.80000E-2	1.99998E+0	3.90506E-8
4.85000E-2	2.00002E+0	3.86651E-8
4.90000E-2	1.99996E+0	3.63705E-8
4.95000E-2	2.00001E+0	3.48905E-8
5.00000E-2	2.00003E+0	3.50770E-8
5.05000E-2	1.99986E+0	1.40884E-7
5.10000E-2	2.00006E+0	1.29025E-7
5.15000E-2	1.99999E+0	1.03281E-7
5.20000E-2	1.99997E+0	8.80707E-8
5.25000E-2	2.00003E+0	7.71511E-8
5.30000E-2	2.00000E+0	6.90049E-8
5.35000E-2	1.99994E+0	6.25440E-8
5.40000E-2	2.00006E+0	5.70406E-8
5.45000E-2	1.99999E+0	5.50818E-8
5.50000E-2	1.99998E+0	5.20907E-8
5.55000E-2	2.00006E+0	4.85275E-8
5.60000E-2	1.99999E+0	4.59966E-8
5.65000E-2	2.00000E+0	4.29745E-8
5.70000E-2	2.00004E+0	4.45664E-8
5.75000E-2	1.99999E+0	3.91750E-8
5.80000E-2	2.00003E+0	3.88205E-8
5.85000E-2	2.00000E+0	3.87957E-8
5.90000E-2	1.99999E+0	3.83479E-8
5.95000E-2	1.99996E+0	3.79064E-8
6.00000E-2	1.99995E+0	5.53865E-8
6.05000E-2	2.00001E+0	1.55410E-7
6.10000E-2	2.00000E+0	1.17888E-7
6.15000E-2	2.00004E+0	9.74046E-8
6.20000E-2	1.99999E+0	8.40349E-8
6.25000E-2	2.00003E+0	7.55094E-8
6.30000E-2	2.00006E+0	6.54044E-8
6.35000E-2	1.99992E+0	6.42416E-8
6.40000E-2	2.00006E+0	5.77682E-8
6.45000E-2	1.99999E+0	5.16243E-8
6.50000E-2	1.99995E+0	5.33655E-8
6.55000E-2	2.00004E+0	4.84716E-8
6.60000E-2	1.99999E+0	4.56795E-8
6.65000E-2	1.99996E+0	4.45664E-8
6.70000E-2	2.00004E+0	4.30864E-8
6.75000E-2	1.99996E+0	3.92683E-8
6.80000E-2	2.00003E+0	4.04995E-8
6.85000E-2	2.00003E+0	3.72286E-8
6.90000E-2	2.00001E+0	3.66876E-8
6.95000E-2	2.00003E+0	3.69115E-8
7.00000E-2	1.99993E+0	1.06334E-7
7.05000E-2	2.00002E+0	1.38024E-7
7.10000E-2	1.99998E+0	1.11123E-7
7.15000E-2	2.00002E+0	9.10494E-8
7.20000E-2	2.00001E+0	8.00987E-8
7.25000E-2	1.99997E+0	7.57146E-8
7.30000E-2	2.00001E+0	6.29171E-8
7.35000E-2	2.00000E+0	6.18226E-8
7.40000E-2	2.00000E+0	5.62571E-8
7.45000E-2	2.00002E+0	5.40060E-8
7.50000E-2	1.99996E+0	4.83845E-8
7.55000E-2	1.99998E+0	4.83970E-8
7.60000E-2	2.00005E+0	4.63262E-8
7.65000E-2	1.99993E+0	4.42182E-8
7.70000E-2	2.00002E+0	4.20230E-8
7.75000E-2	2.00000E+0	4.07669E-8
7.80000E-2	1.99995E+0	4.02570E-8
7.85000E-2	1.99998E+0	3.94486E-8
7.90000E-2	1.99999E+0	3.56305E-8
7.95000E-2	1.99992E+0	3.97471E-8
8.00000E-2	2.00002E+0	1.42202E-7
8.05000E-2	1.99998E+0	1.26694E-7
8.10000E-2	2.00000E+0	1.02379E-7
8.15000E-2	2.00004E+0	8.91776E-8
8.20000E-2	1.99999E+0	7.81834E-8
8.25000E-2	1.99996E+0	7.04911E-8
8.30000E-2	2.00005E+0	6.31223E-8
8.35000E-2	1.99998E+0	5.80107E-8
8.40000E-2	2.00003E+0	5.55357E-8
8.45000E-2	2.00003E+0	5.36080E-8
8.50000E-2	2.00002E+0	4.91618E-8
8.55000E-2	1.99997E+0	4.59344E-8
8.60000E-2	2.00004E+0	4.47840E-8
8.65000E-2	2.00001E+0	4.29372E-8
8.70000E-2	2.00000E+0	4.21350E-8
8.75000E-2	2.00005E+0	4.22345E-8
8.80000E-2	1.99998E+0	3.86526E-8
8.85000E-2	1.99996E+0	3.96227E-8
8.90000E-2	2.00006E+0	3.65010E-8
8.95000E-2	1.99985E+0	6.65238E-8
9.00000E-2	1.99998E+0	1.51406E-7
9.05000E-2	2.00007E+0	1.16607E-7
9.10000E-2	1.99999E+0	9.54334E-8
9.15000E-2	2.00001E+0	8.62612E-8
9.20000E-2	2.00003E+0	7.28106E-8
9.25000E-2	1.99995E+0	6.95459E-8
9.30000E-2	2.00001E+0	6.10142E-8
9.35000E-2	2.00004E+0	5.82905E-8
9.40000E-2	1.99998E+0	5.56228E-8
9.45000E-2	1.99995E+0	5.33158E-8
9.50000E-2	2.00006E+0	4.73398E-8
9.55000E-2	1.99999E+0	4.62392E-8
9.60000E-2	1.99996E+0	4.79554E-8
9.65000E-2	2.00001E+0	4.37331E-8
9.70000E-2	1.99999E+0	4.07980E-8
9.75000E-2	1.99996E+0	4.01264E-8
9.80000E-2	2.00009E+0	3.95419E-8
9.85000E-2	1.99995E+0	3.75271E-8
9.90000E-2	1.99999E+0	3.75706E-8
9.95000E-2	1.99992E+0	1.13921E-7
1.00000E-1	2.00001E+0	1.33036E-7
1.00500E-1	1.99999E+0	1.10146E-7
1.01000E-1	2.00008E+0	9.10867E-8
1.01500E-1	1.99998E+0	8.05588E-8
1.02000E-1	1.99999E+0	7.32397E-8
1.02500E-1	2.00003E+0	6.73570E-8
1.03000E-1	1.99998E+0	5.97270E-8
1.03500E-1	2.00004E+0	5.74199E-8
1.04000E-1	2.00001E+0	5.32411E-8
1.04500E-1	1.99998E+0	5.31479E-8
1.05000E-1	2.00001E+0	4.90499E-8
1.05500E-1	2.00000E+0	4.57852E-8
1.06000E-1	1.99995E+0	4.40813E-8
1.06500E-1	2.00004E+0	4.37704E-8
1.07000E-1	2.00000E+0	3.95170E-8
1.07500E-1	1.99999E+0	4.12022E-8
1.08000E-1	2.00006E+0	3.86153E-8
1.08500E-1	1.99996E+0	3.64886E-8
1.09000E-1	1.99993E+0	4.34533E-8
1.09500E-1	1.99999E+0	1.46400E-7
1.10000E-1	1.99998E+0	1.25543E-7
1.10500E-1	2.00001E+0	1.02205E-7
1.11000E-1	2.00004E+0	8.71690E-8
1.11500E-1	1.99998E+0	7.94457E-8
1.12000E-1	2.00000E+0	7.14053E-8
1.12500E-1	2.00005E+0	6.21771E-8
1.13000E-1	1.99999E+0	6.06038E-8
1.13500E-1	1.99999E+0	5.51191E-8
1.14000E-1	2.00004E+0	5.26939E-8
1.14500E-1	2.00001E+0	4.98894E-8
1.15000E-1	2.00002E+0	4.90437E-8
1.15500E-1	2.00003E+0	4.43674E-8
1.16000E-1	1.99998E+0	4.57479E-8
1.16500E-1	2.00003E+0	4.26200E-8
1.17000E-1	1.99998E+0	4.19484E-8
1.17500E-1	1.99995E+0	4.07856E-8
1.18000E-1	2.00004E+0	3.84225E-8
1.18500E-1	1.99998E+0	3.57797E-8
1.19000E-1	1.99991E+0	7.66163E-8
1.19500E-1	2.00005E+0	1.46742E-7
1.20000E-1	2.00003E+0	1.13884E-7
1.20500E-1	1.99998E+0	9.60863E-8
1.21000E-1	2.00002E+0	8.35872E-8
1.21500E-1	2.00003E+0	7.55903E-8
1.22000E-1	1.99996E+0	6.90236E-8
1.22500E-1	2.00006E+0	6.22392E-8
1.23000E-1	2.00000E+0	5.79050E-8
1.23500E-1	1.99998E+0	5.60954E-8
1.24000E-1	2.00006E+0	5.05921E-8
1.24500E-1	1.99998E+0	4.93546E-8
1.25000E-1	1.99995E+0	5.04677E-8
1.25500E-1	2.00004E+0	4.48897E-8
1.26000E-1	1.99999E+0	4.17059E-8
1.26500E-1	1.99997E+0	4.34471E-8
1.27000E-1	2.00008E+0	4.04622E-8
1.27500E-1	2.00000E+0	4.06239E-8
1.28000E-1	1.99998E+0	3.84101E-8
1.28500E-1	2.00003E+0	3.69115E-8
1.29000E-1	1.99990E+0	1.19157E-7
1.29500E-1	2.00000E+0	1.34603E-7
1.30000E-1	2.00009E+0	1.07758E-7
1.30500E-1	2.00001E+0	9.14971E-8
1.31000E-1	1.99997E+0	8.20823E-8
1.31500E-1	2.00005E+0	7.04103E-8
1.32000E-1	1.99998E+0	6.60325E-8
1.32500E-1	2.00006E+0	6.24258E-8
1.33000E-1	1.99999E+0	5.65680E-8
1.33500E-1	2.00000E+0	5.39003E-8
1.34000E-1	1.99995E+0	5.36329E-8
1.34500E-1	2.00009E+0	4.74704E-8
1.35000E-1	1.99997E+0	4.65314E-8
1.35500E-1	1.99998E+0	4.77005E-8
1.36000E-1	2.00001E+0	4.02197E-8
1.36500E-1	1.99995E+0	4.36834E-8
1.37000E-1	2.00001E+0	4.10903E-8
1.37500E-1	2.00000E+0	3.69674E-8
1.38000E-1	2.00001E+0	3.87646E-8
1.38500E-1	1.99993E+0	4.47529E-8
1.39000E-1	1.99998E+0	1.47805E-7
1.39500E-1	2.00000E+0	1.23852E-7
1.40000E-1	2.00007E+0	1.01552E-7
1.40500E-1	2.00003E+0	8.77909E-8
1.41000E-1	1.99998E+0	7.97380E-8
1.41500E-1	2.00006E+0	6.89552E-8
1.42000E-1	1.99997E+0	6.46334E-8
1.42500E-1	1.99999E+0	6.14246E-8
1.43000E-1	2.00001E+0	5.72458E-8
1.43500E-1	2.00000E+0	5.05859E-8
1.44000E-1	1.99998E+0	5.22773E-8
1.44500E-1	2.00002E+0	4.65936E-8
1.45000E-1	2.00001E+0	4.78560E-8
1.45500E-1	1.99997E+0	4.57976E-8
1.46000E-1	2.00001E+0	4.29061E-8
1.46500E-1	1.99999E+0	4.21163E-8
1.47000E-1	1.99999E+0	4.03316E-8
1.47500E-1	2.00002E+0	3.89138E-8
1.48000E-1	1.99997E+0	3.77945E-8
1.48500E-1	1.99991E+0	8.49677E-8
1.49000E-1	2.00007E+0	1.42656E-7
1.49500E-1	2.00000E+0	1.15332E-7
1.50000E-1	1.99999E+0	9.78959E-8
1.50500E-1	2.00004E+0	8.44391E-8
1.51000E-1	2.00001E+0	7.34449E-8
1.51500E-1	1.99998E+0	6.85323E-8
1.52000E-1	2.00005E+0	6.25129E-8
1.52500E-1	1.99997E+0	5.93477E-8
1.53000E-1	2.00001E+0	5.69971E-8
1.53500E-1	2.00003E+0	5.20907E-8
1.54000E-1	1.99995E+0	4.92986E-8
1.54500E-1	2.00004E+0	4.85524E-8
1.55000E-1	2.00001E+0	4.51198E-8
1.55500E-1	1.99998E+0	4.44482E-8
1.56000E-1	1.99997E+0	4.52007E-8
1.56500E-1	2.00000E+0	3.82609E-8
1.57000E-1	2.00001E+0	4.13390E-8
1.57500E-1	2.00004E+0	3.94237E-8
1.58000E-1	1.99996E+0	3.89636E-8
1.58500E-1	1.99992E+0	1.25773E-7
1.59000E-1	2.00004E+0	1.31022E-7
1.59500E-1	1.99998E+0	1.08268E-7
1.60000E-1	2.00003E+0	9.22931E-8
1.60500E-1	2.00005E+0	7.82269E-8
1.61000E-1	1.99996E+0	7.33578E-8
1.61500E-1	2.00005E+0	6.66917E-8
1.62000E-1	2.00001E+0	6.07655E-8
1.62500E-1	1.99993E+0	5.92046E-8
1.63000E-1	2.00007E+0	5.39003E-8
1.63500E-1	1.99998E+0	5.10895E-8
1.64000E-1	1.99999E+0	4.89131E-8
1.64500E-1	2.00002E+0	4.77813E-8
1.65000E-1	2.00001E+0	4.54681E-8
1.65500E-1	1.99998E+0	4.26200E-8
1.66000E-1	2.00009E+0	4.29061E-8
1.66500E-1	1.99994E+0	4.06736E-8
1.67000E-1	2.00001E+0	4.09162E-8
1.67500E-1	2.00004E+0	3.85718E-8
1.68000E-1	1.99993E+0	4.68548E-8
1.68500E-1	1.99998E+0	1.56051E-7
1.69000E-1	2.00003E+0	1.23491E-7
1.69500E-1	2.00000E+0	9.97366E-8
1.70000E-1	2.00000E+0	8.91714E-8
1.70500E-1	2.00006E+0	7.68029E-8
1.71000E-1	1.99996E+0	7.15669E-8
1.71500E-1	2.00005E+0	6.55102E-8
1.72000E-1	2.00000E+0	6.06535E-8
1.72500E-1	1.99993E+0	5.68976E-8
1.73000E-1	2.00007E+0	5.18358E-8
1.73500E-1	2.00000E+0	5.24390E-8
1.74000E-1	1.99995E+0	5.07102E-8
1.74500E-1	2.00004E+0	4.65687E-8
1.75000E-1	2.00001E+0	4.25703E-8
1.75500E-1	2.00000E+0	4.37766E-8
1.76000E-1	2.00006E+0	4.10903E-8
1.76500E-1	1.99999E+0	4.00331E-8
1.77000E-1	1.99996E+0	4.11276E-8
1.77500E-1	2.00006E+0	3.84723E-8
1.78000E-1	1.99990E+0	9.13603E-8
1.78500E-1	1.99999E+0	1.40430E-7
1.79000E-1	2.00006E+0	1.12509E-7
1.79500E-1	2.00001E+0	9.72429E-8
1.80000E-1	2.00004E+0	8.15102E-8
1.80500E-1	2.00003E+0	7.73750E-8
1.81000E-1	1.99999E+0	6.67663E-8
1.81500E-1	1.99998E+0	6.52303E-8
1.82000E-1	2.00006E+0	5.85704E-8
1.82500E-1	1.99999E+0	5.33593E-8
1.83000E-1	2.00004E+0	5.44289E-8
1.83500E-1	1.99999E+0	4.98707E-8
1.84000E-1	1.99998E+0	4.82104E-8
1.84500E-1	2.00001E+0	4.63511E-8
1.85000E-1	2.00000E+0	4.29123E-8
1.85500E-1	1.99998E+0	4.37642E-8
1.86000E-1	2.00006E+0	4.11027E-8
1.86500E-1	1.99995E+0	4.12022E-8
1.87000E-1	2.00000E+0	3.82236E-8
1.87500E-1	2.00002E+0	4.04249E-8
1.88000E-1	1.99990E+0	1.32533E-7
1.88500E-1	2.00003E+0	1.30549E-7
1.89000E-1	2.00001E+0	1.07603E-7
1.89500E-1	1.99999E+0	9.02907E-8
1.90000E-1	2.00006E+0	8.18709E-8
1.90500E-1	1.99999E+0	7.03419E-8
1.91000E-1	1.99997E+0	6.88495E-8
1.91500E-1	2.00005E+0	6.18226E-8
1.92000E-1	1.99997E+0	5.58031E-8
1.92500E-1	2.00002E+0	5.54798E-8
1.93000E-1	2.00003E+0	5.18047E-8
1.93500E-1	2.00001E+0	4.93422E-8
1.94000E-1	1.99996E+0	4.83348E-8
1.94500E-1	2.00008E+0	4.53375E-8
1.95000E-1	1.99999E+0	4.19173E-8
1.95500E-1	1.99998E+0	4.47840E-8
1.96000E-1	2.00003E+0	4.14509E-8
1.96500E-1	1.99998E+0	3.85842E-8
1.97000E-1	2.00000E+0	3.82484E-8
1.97500E-1	1.99994E+0	5.28556E-8
1.98000E-1	2.00002E+0	1.54148E-7
1.98500E-1	2.00000E+0	1.22036E-7
1.99000E-1	2.00002E+0	1.00949E-7
1.99500E-1	2.00001E+0	8.49739E-8
2.00000E-1	2.00007E+0	7.66723E-8
2.00500E-1	2.00003E+0	7.22510E-8
2.01000E-1	1.99996E+0	6.49132E-8
2.01500E-1	2.00001E+0	6.00068E-8
2.02000E-1	1.99998E+0	5.67794E-8
2.02500E-1	2.00001E+0	5.39438E-8
2.03000E-1	1.99999E+0	4.96842E-8
2.03500E-1	2.00004E+0	5.07413E-8
2.04000E-1	1.99994E+0	4.68112E-8
2.04500E-1	2.00001E+0	4.59469E-8
2.05000E-1	2.00003E+0	4.12893E-8
2.05500E-1	1.99999E+0	4.17370E-8
2.06000E-1	2.00000E+0	4.29931E-8
2.06500E-1	2.00005E+0	3.77696E-8
2.07000E-1	1.99997E+0	3.99958E-8
2.07500E-1	1.99993E+0	9.92018E-8
2.08000E-1	2.00007E+0	1.39429E-7
2.08500E-1	2.00000E+0	1.11576E-7
2.09000E-1	2.00001E+0	9.62231E-8
2.09500E-1	2.00008E+0	8.23124E-8
2.10000E-1	2.00001E+0	7.37931E-8
2.10500E-1	2.00000E+0	7.05844E-8
2.11000E-1	2.00005E+0	6.07219E-8
2.11500E-1	1.99999E+0	5.90927E-8
2.12000E-1	1.99999E+0	5.77060E-8
2.12500E-1	2.00000E+0	5.36578E-8
2.13000E-1	1.99995E+0	4.86954E-8
2.13500E-1	1.99995E+0	5.00386E-8
2.14000E-1	2.00004E+0	4.66247E-8
2.14500E-1	1.99997E+0	4.31175E-8
2.15000E-1	2.00001E+0	4.21972E-8
2.15500E-1	2.00004E+0	4.30118E-8
2.16000E-1	1.99995E+0	4.01948E-8
2.16500E-1	2.00001E+0	3.84847E-8
2.17000E-1	2.00000E+0	3.89138E-8
2.17500E-1	1.99991E+0	1.38751E-7
2.18000E-1	2.00004E+0	1.28708E-7
2.18500E-1	2.00002E+0	1.04034E-7
2.19000E-1	1.99997E+0	9.09623E-8
2.19500E-1	2.00000E+0	8.17341E-8
2.20000E-1	2.00000E+0	7.22758E-8
2.20500E-1	1.99995E+0	6.65238E-8
2.21000E-1	2.00006E+0	6.12629E-8
2.21500E-1	2.00000E+0	5.69722E-8
2.22000E-1	1.99996E+0	5.78988E-8
2.22500E-1	2.00002E+0	5.14067E-8
2.23000E-1	1.99997E+0	4.99391E-8
2.23500E-1	1.99992E+0	4.85089E-8
2.24000E-1	2.00009E+0	4.36709E-8
2.24500E-1	1.99997E+0	4.56422E-8
2.25000E-1	1.99997E+0	4.30118E-8
2.25500E-1	2.00002E+0	4.14198E-8
2.26000E-1	1.99996E+0	3.89946E-8
2.26500E-1	1.99999E+0	3.97533E-8
2.27000E-1	1.99993E+0	6.04608E-8
2.27500E-1	2.00002E+0	1.51443E-7
2.28000E-1	2.00002E+0	1.19605E-7
2.28500E-1	2.00001E+0	9.92515E-8
2.29000E-1	1.99997E+0	8.69763E-8
2.29500E-1	2.00006E+0	7.88363E-8
2.30000E-1	1.99999E+0	6.76369E-8
2.30500E-1	2.00003E+0	6.54604E-8
2.31000E-1	2.00006E+0	6.14619E-8
2.31500E-1	1.99996E+0	5.78863E-8
2.32000E-1	1.99993E+0	5.50818E-8
2.32500E-1	2.00007E+0	4.95847E-8
2.33000E-1	1.99993E+0	4.87079E-8
2.33500E-1	2.00003E+0	4.83161E-8
2.34000E-1	2.00002E+0	4.48338E-8
2.34500E-1	2.00001E+0	4.13701E-8
2.35000E-1	1.99995E+0	4.33662E-8
2.35500E-1	2.00008E+0	4.15504E-8
2.36000E-1	1.99995E+0	3.85718E-8
2.36500E-1	2.00000E+0	4.01015E-8
2.37000E-1	1.99996E+0	1.04649E-7
2.37500E-1	1.99998E+0	1.36662E-7
2.38000E-1	2.00003E+0	1.12416E-7
2.38500E-1	2.00006E+0	9.36052E-8
2.39000E-1	1.99997E+0	8.27353E-8
2.39500E-1	2.00000E+0	7.73936E-8
2.40000E-1	2.00003E+0	6.76120E-8
2.40500E-1	1.99997E+0	6.28611E-8
2.41000E-1	1.99995E+0	6.11510E-8
2.41500E-1	2.00004E+0	5.35707E-8
2.42000E-1	1.99998E+0	5.25385E-8
2.42500E-1	2.00004E+0	5.12450E-8
2.43000E-1	2.00001E+0	4.80549E-8
2.43500E-1	1.99998E+0	4.67864E-8
2.44000E-1	2.00003E+0	4.63386E-8
2.44500E-1	2.00001E+0	4.07980E-8
2.45000E-1	1.99998E+0	4.19982E-8
2.45500E-1	2.00003E+0	4.16313E-8
2.46000E-1	2.00002E+0	3.94175E-8
2.46500E-1	1.99997E+0	4.09970E-8
2.47000E-1	1.99999E+0	1.42781E-7
2.47500E-1	2.00003E+0	1.27241E-7
2.48000E-1	1.99995E+0	1.05974E-7
2.48500E-1	1.99997E+0	9.24485E-8
2.49000E-1	2.00003E+0	7.93089E-8
2.49500E-1	1.99997E+0	7.28728E-8
2.50000E-1	2.00005E+0	6.54728E-8
2.50500E-1	1.99999E+0	6.14744E-8
2.51000E-1	1.99996E+0	5.90989E-8
2.51500E-1	2.00003E+0	5.67670E-8
2.52000E-1	1.99996E+0	5.03185E-8
2.52500E-1	1.99996E+0	5.07973E-8
2.53000E-1	2.00005E+0	4.60153E-8
2.53500E-1	2.00000E+0	4.74082E-8
2.54000E-1	2.00000E+0	4.42741E-8
2.54500E-1	2.00003E+0	4.40005E-8
2.55000E-1	1.99996E+0	4.05617E-8
2.55500E-1	1.99999E+0	4.09783E-8
2.56000E-1	2.00003E+0	3.94299E-8
2.56500E-1	1.99983E+0	7.02424E-8
2.57000E-1	2.00006E+0	1.47208E-7
2.57500E-1	2.00000E+0	1.17111E-7
2.58000E-1	1.99995E+0	1.01148E-7
2.58500E-1	2.00003E+0	8.51170E-8
2.59000E-1	2.00002E+0	7.89793E-8
2.59500E-1	1.99994E+0	7.08207E-8
2.60000E-1	2.00004E+0	6.38809E-8
2.60500E-1	2.00001E+0	6.15241E-8
2.61000E-1	1.99991E+0	5.80978E-8
2.61500E-1	2.00005E+0	5.37013E-8
2.62000E-1	1.99999E+0	5.03122E-8
2.62500E-1	2.00000E+0	4.88385E-8
2.63000E-1	2.00005E+0	4.64568E-8
2.63500E-1	2.00000E+0	4.67677E-8
2.64000E-1	1.99995E+0	4.38202E-8
2.64500E-1	2.00008E+0	4.21101E-8
2.65000E-1	2.00000E+0	4.15940E-8
2.65500E-1	2.00000E+0	4.06923E-8
2.66000E-1	2.00001E+0	3.97844E-8
2.66500E-1	1.99991E+0	1.13927E-7
2.67000E-1	1.99998E+0	1.37035E-7
2.67500E-1	2.00006E+0	1.10171E-7
2.68000E-1	1.99997E+0	9.39285E-8
2.68500E-1	2.00003E+0	8.52538E-8
2.69000E-1	2.00002E+0	7.23194E-8
2.69500E-1	1.99999E+0	6.94589E-8
2.70000E-1	2.00002E+0	6.29108E-8
2.70500E-1	2.00002E+0	6.13189E-8
2.71000E-1	1.99995E+0	5.51005E-8
2.71500E-1	2.00002E+0	5.36329E-8
2.72000E-1	2.00001E+0	4.92613E-8
2.72500E-1	2.00002E+0	4.95909E-8
2.73000E-1	2.00000E+0	4.83970E-8
2.73500E-1	2.00000E+0	4.46659E-8
2.74000E-1	1.99996E+0	4.42741E-8
2.74500E-1	2.00003E+0	3.93802E-8
2.75000E-1	2.00000E+0	4.22904E-8
2.75500E-1	1.99999E+0	3.83293E-8
2.76000E-1	2.00000E+0	4.40192E-8
2.76500E-1	1.99995E+0	1.47463E-7
2.77000E-1	2.00002E+0	1.25052E-7
2.77500E-1	2.00001E+0	1.04083E-7
2.78000E-1	2.00001E+0	8.89040E-8
2.78500E-1	2.00000E+0	8.22316E-8
2.79000E-1	2.00005E+0	7.00994E-8
2.79500E-1	1.99995E+0	6.84328E-8
2.80000E-1	1.99999E+0	6.29544E-8
2.80500E-1	1.99998E+0	5.95653E-8
2.81000E-1	1.99995E+0	5.49885E-8
2.81500E-1	2.00003E+0	5.07289E-8
2.82000E-1	2.00002E+0	4.93173E-8
2.82500E-1	1.99997E+0	4.95785E-8
2.83000E-1	2.00005E+0	4.56795E-8
2.83500E-1	1.99999E+0	4.39694E-8
2.84000E-1	1.99995E+0	4.37766E-8
2.84500E-1	2.00006E+0	4.09348E-8
2.85000E-1	1.99999E+0	4.09721E-8
2.85500E-1	1.99995E+0	4.06985E-8
2.86000E-1	1.99991E+0	7.84570E-8
2.86500E-1	2.00003E+0	1.44696E-7
2.87000E-1	2.00000E+0	1.16346E-7
2.87500E-1	2.00006E+0	9.83312E-8
2.88000E-1	1.99998E+0	8.63980E-8
2.88500E-1	1.99998E+0	7.84321E-8
2.89000E-1	2.00004E+0	6.98879E-8
2.89500E-1	1.99999E+0	6.46955E-8
2.90000E-1	2.00000E+0	6.15925E-8
2.90500E-1	2.00001E+0	5.80293E-8
2.91000E-1	1.99999E+0	5.27748E-8
2.91500E-1	2.00004E+0	5.27374E-8
2.92000E-1	1.99998E+0	4.80923E-8
2.92500E-1	1.99999E+0	4.73274E-8
2.93000E-1	2.00006E+0	4.66744E-8
2.93500E-1	2.00001E+0	4.17619E-8
2.94000E-1	1.99996E+0	4.37207E-8
2.94500E-1	2.00003E+0	4.06363E-8
2.95000E-1	1.99999E+0	3.96165E-8
2.95500E-1	2.00000E+0	4.10405E-8
2.96000E-1	1.99993E+0	1.20599E-7
2.96500E-1	1.99997E+0	1.34429E-7
2.97000E-1	2.00004E+0	1.09966E-7
2.97500E-1	1.99999E+0	9.14163E-8
2.98000E-1	1.99998E+0	8.44702E-8
2.98500E-1	1.99999E+0	7.52545E-8
2.99000E-1	2.00001E+0	6.88246E-8
2.99500E-1	1.99997E+0	6.18910E-8
3.00000E-1	2.00006E+0	6.17045E-8
3.00500E-1	1.99999E+0	5.39500E-8
3.01000E-1	1.99995E+0	5.48082E-8
3.01500E-1	2.00004E+0	5.00324E-8
3.02000E-1	1.99995E+0	4.86644E-8
3.02500E-1	1.99999E+0	4.78373E-8
3.03000E-1	2.00006E+0	4.19671E-8
3.03500E-1	2.00000E+0	4.33787E-8
3.04000E-1	2.00001E+0	4.43239E-8
3.04500E-1	2.00002E+0	3.86029E-8
3.05000E-1	1.99996E+0	4.24024E-8
3.05500E-1	2.00001E+0	4.40378E-8
3.06000E-1	1.99999E+0	1.51959E-7
3.06500E-1	1.99996E+0	1.25524E-7
3.07000E-1	2.00004E+0	1.00744E-7
3.07500E-1	1.99999E+0	8.99611E-8
3.08000E-1	1.99997E+0	8.08573E-8
3.08500E-1	2.00004E+0	7.20893E-8
3.09000E-1	2.00000E+0	6.62502E-8
3.09500E-1	1.99997E+0	6.23325E-8
3.10000E-1	2.00000E+0	5.80418E-8
3.10500E-1	1.99998E+0	5.34899E-8
3.11000E-1	2.00000E+0	5.44040E-8
3.11500E-1	2.00001E+0	4.74766E-8
3.12000E-1	1.99998E+0	4.84032E-8
3.12500E-1	2.00006E+0	4.63760E-8
3.13000E-1	2.00001E+0	4.36834E-8
3.13500E-1	1.99997E+0	4.38388E-8
3.14000E-1	2.00003E+0	4.04000E-8
3.14500E-1	1.99999E+0	4.00269E-8
3.15000E-1	1.99994E+0	4.22345E-8
3.15500E-1	1.99997E+0	8.44889E-8
3.16000E-1	2.00000E+0	1.43975E-7
3.16500E-1	1.99998E+0	1.16993E-7
3.17000E-1	2.00005E+0	9.71808E-8
3.17500E-1	1.99996E+0	8.48993E-8
3.18000E-1	1.99995E+0	7.73252E-8
3.18500E-1	2.00008E+0	6.99501E-8
3.19000E-1	2.00000E+0	6.46831E-8
3.19500E-1	1.99997E+0	6.01498E-8
3.20000E-1	2.00004E+0	5.73018E-8
3.20500E-1	1.99999E+0	5.23084E-8
3.21000E-1	2.00001E+0	5.08657E-8
3.21500E-1	2.00004E+0	5.14378E-8
3.22000E-1	1.99999E+0	4.49830E-8
3.22500E-1	1.99995E+0	4.89442E-8
3.23000E-1	2.00004E+0	4.27195E-8
3.23500E-1	1.99997E+0	4.13639E-8
3.24000E-1	1.99999E+0	4.29061E-8
3.24500E-1	2.00005E+0	3.73841E-8
3.25000E-1	1.99999E+0	3.94051E-8
3.25500E-1	1.99992E+0	1.30412E-7
3.26000E-1	2.00003E+0	1.30966E-7
3.26500E-1	2.00000E+0	1.08927E-7
3.27000E-1	1.99998E+0	9.65900E-8
3.27500E-1	1.99998E+0	7.95141E-8
3.28000E-1	2.00000E+0	7.43093E-8
3.28500E-1	2.00002E+0	7.08705E-8
3.29000E-1	2.00002E+0	6.02742E-8
3.29500E-1	2.00001E+0	5.89932E-8
3.30000E-1	2.00007E+0	5.62011E-8
3.30500E-1	1.99999E+0	5.33282E-8
3.31000E-1	2.00004E+0	5.15497E-8
3.31500E-1	2.00001E+0	4.91867E-8
3.32000E-1	1.99999E+0	4.61583E-8
3.32500E-1	2.00001E+0	4.63697E-8
3.33000E-1	1.99999E+0	4.44669E-8
3.33500E-1	1.99998E+0	4.10032E-8
3.34000E-1	1.99994E+0	4.23837E-8
3.34500E-1	2.00003E+0	3.80494E-8
3.35000E-1	1.99996E+0	5.12201E-8
3.35500E-1	1.99998E+0	1.52065E-7
3.36000E-1	2.00006E+0	1.23392E-7
3.36500E-1	1.99998E+0	1.02199E-7
3.37000E-1	1.99995E+0	9.13727E-8
3.37500E-1	2.00007E+0	7.87928E-8
3.38000E-1	1.99997E+0	7.05471E-8
3.38500E-1	2.00004E+0	6.64180E-8
3.39000E-1	2.00005E+0	6.15801E-8
3.39500E-1	1.99998E+0	5.76314E-8
3.40000E-1	2.00000E+0	5.74946E-8
3.40500E-1	2.00002E+0	5.18109E-8
3.41000E-1	1.99999E+0	5.05299E-8
3.41500E-1	1.99996E+0	4.95163E-8
3.42000E-1	2.00004E+0	4.46161E-8
3.42500E-1	1.99999E+0	4.38886E-8
3.43000E-1	2.00001E+0	4.39134E-8
3.43500E-1	2.00005E+0	4.14945E-8
3.44000E-1	1.99998E+0	3.98715E-8
3.44500E-1	1.99997E+0	4.25392E-8
3.45000E-1	1.99994E+0	9.18889E-8
3.45500E-1	2.00003E+0	1.40785E-7
3.46000E-1	1.99999E+0	1.15998E-7
3.46500E-1	2.00007E+0	9.75041E-8
3.47000E-1	2.00000E+0	8.35934E-8
3.47500E-1	1.99997E+0	7.73252E-8
3.48000E-1	2.00006E+0	6.97138E-8
3.48500E-1	1.99998E+0	6.51806E-8
3.49000E-1	2.00004E+0	6.06473E-8
3.49500E-1	2.00003E+0	5.81972E-8
3.50000E-1	2.00000E+0	5.37137E-8
3.50500E-1	1.99997E+0	5.17985E-8
3.51000E-1	2.00003E+0	4.94852E-8
3.51500E-1	1.99998E+0	4.63262E-8
3.52000E-1	2.00002E+0	4.73523E-8
3.52500E-1	2.00001E+0	4.25019E-8
3.53000E-1	1.99996E+0	4.21412E-8
3.53500E-1	1.99999E+0	4.08353E-8
3.54000E-1	2.00005E+0	4.02010E-8
3.54500E-1	1.99995E+0	3.97782E-8
3.55000E-1	1.99991E+0	1.35549E-7
3.55500E-1	2.00007E+0	1.27850E-7
3.56000E-1	1.99994E+0	1.09748E-7
3.56500E-1	2.00004E+0	9.01974E-8
3.57000E-1	1.99999E+0	8.23871E-8
3.57500E-1	1.99999E+0	7.52794E-8
3.58000E-1	2.00005E+0	6.80162E-8
3.58500E-1	1.99999E+0	6.14619E-8
3.59000E-1	2.00001E+0	5.82408E-8
3.59500E-1	2.00002E+0	5.86823E-8
3.60000E-1	2.00001E+0	5.23706E-8
3.60500E-1	1.99993E+0	5.26193E-8
3.61000E-1	2.00005E+0	4.83721E-8
3.61500E-1	1.99999E+0	4.45166E-8
3.62000E-1	1.99997E+0	4.71097E-8
3.62500E-1	2.00005E+0	4.31983E-8
3.63000E-1	1.99998E+0	3.99336E-8
3.63500E-1	2.00001E+0	4.28936E-8
3.64000E-1	2.00004E+0	3.89449E-8
3.64500E-1	1.99988E+0	5.58218E-8
3.65000E-1	1.99999E+0	1.55665E-7
3.65500E-1	2.00006E+0	1.21750E-7
3.66000E-1	1.99999E+0	1.00047E-7
3.66500E-1	1.99999E+0	9.00855E-8
3.67000E-1	2.00006E+0	7.69646E-8
3.67500E-1	2.00002E+0	7.29226E-8
3.68000E-1	1.99998E+0	6.86069E-8
3.68500E-1	2.00006E+0	5.92295E-8
3.69000E-1	1.99998E+0	5.89683E-8
3.69500E-1	1.99999E+0	5.71525E-8
3.70000E-1	2.00003E+0	5.02501E-8
3.70500E-1	2.00000E+0	4.88074E-8
3.71000E-1	2.00003E+0	5.07102E-8
3.71500E-1	2.00001E+0	4.33911E-8
3.72000E-1	2.00000E+0	4.59718E-8
3.72500E-1	1.99996E+0	4.35341E-8
3.73000E-1	2.00004E+0	4.06425E-8
3.73500E-1	1.99996E+0	4.15753E-8
3.74000E-1	2.00003E+0	4.09472E-8
3.74500E-1	1.99992E+0	9.92950E-8
3.75000E-1	2.00001E+0	1.39510E-7
3.75500E-1	2.00005E+0	1.13604E-7
3.76000E-1	2.00001E+0	9.62915E-8
3.76500E-1	2.00001E+0	8.47625E-8
3.77000E-1	2.00006E+0	7.74620E-8
3.77500E-1	1.99999E+0	6.96454E-8
3.78000E-1	1.99997E+0	6.50002E-8
3.78500E-1	2.00004E+0	6.07468E-8
3.79000E-1	1.99999E+0	5.65929E-8
3.79500E-1	1.99998E+0	5.33344E-8
3.80000E-1	2.00005E+0	5.23706E-8
3.80500E-1	2.00001E+0	4.72963E-8
3.81000E-1	1.99997E+0	5.02190E-8
3.81500E-1	2.00003E+0	4.53002E-8
3.82000E-1	1.99999E+0	4.18987E-8
3.82500E-1	1.99996E+0	4.31548E-8
3.83000E-1	2.00006E+0	4.21909E-8
3.83500E-1	2.00001E+0	3.83168E-8
3.84000E-1	1.99999E+0	4.28998E-8
3.84500E-1	1.99999E+0	1.37650E-7
3.85000E-1	1.99998E+0	1.29579E-7
3.85500E-1	1.99999E+0	1.09885E-7
3.86000E-1	2.00003E+0	9.01353E-8
3.86500E-1	1.99992E+0	8.27228E-8
3.87000E-1	2.00004E+0	7.46451E-8
3.87500E-1	2.00001E+0	6.53733E-8
3.88000E-1	1.99998E+0	6.51184E-8
3.88500E-1	2.00003E+0	5.97892E-8
3.89000E-1	2.00000E+0	5.37946E-8
3.89500E-1	1.99998E+0	5.48020E-8
3.90000E-1	2.00003E+0	4.94354E-8
3.90500E-1	1.99999E+0	4.80985E-8
3.91000E-1	1.99995E+0	4.79679E-8
3.91500E-1	2.00006E+0	4.28377E-8
3.92000E-1	2.00002E+0	4.39134E-8
3.92500E-1	1.99997E+0	4.33849E-8
3.93000E-1	2.00004E+0	3.81427E-8
3.93500E-1	2.00001E+0	4.10156E-8
3.94000E-1	1.99988E+0	6.67849E-8
3.94500E-1	2.00006E+0	1.46381E-7
3.95000E-1	2.00002E+0	1.20973E-7
3.95500E-1	1.99998E+0	1.01521E-7
3.96000E-1	2.00005E+0	8.91465E-8
3.96500E-1	1.99999E+0	7.79098E-8
3.97000E-1	2.00001E+0	7.34947E-8
3.97500E-1	1.99998E+0	6.50873E-8
3.98000E-1	2.00000E+0	6.01996E-8
3.98500E-1	2.00000E+0	5.87693E-8
3.99000E-1	2.00005E+0	5.43791E-8
3.99500E-1	1.99999E+0	5.41179E-8
